Time file:	R:\UCL_SSID\SSID_DATABASE\SSID_London\OFF_CamdenTown1_FULL_190502\OFF_CamdenTown1_BIN_190502\CamdenTown1_HDF\13-36_10.hdf
Mark:		13-36_10 (0.00 - 33.75 s)
Filter:	
Analysis:	Level vs. Time (Fast; A)
Statistic:	Max[13-36_10.{Left,Right}]
Kind:	Level
Abscissa 1:	Time,s
Channel 1:	Max {Pa},Sound Pressure,dB(SPL),L(A)=72.06; L5(A)=76.46; L10(A)=75.13; L50(A)=71.17; L90(A)=65.52; L95(A)=64.75 dB(SPL); Min(A)=63.03 dB(SPL) @16.9 s; Max(A)=80.26 dB(SPL) @21.7 s
Comment:
<User Comment>
CT120
<>
SQobold SD recording
S/N 33020299 Name U London FW 1.5/3
Ch1: 104 dB(SPL) ICP
Ch2: 104 dB(SPL) ICP
User Information:
SSID Field Binaural Basic/Comments = cars passing, people talking, truck rattling, motorcycles passing, 
SSID Field Binaural Basic/Delete/scratch? = False
SSID Field Binaural Basic/End Buffer = 
SSID Field Binaural Basic/GroupID = CT120
SSID Field Binaural Basic/No edit needed = True
SSID Field Binaural Basic/SessionID = CamdenTown1
SSID Field Binaural Basic/Start Buffer = 


0,76.11
0.00533333,75.95
0.0106667,75.92
0.016,75.91
0.0213333,76
0.0266667,75.95
0.032,75.94
0.0373333,75.91
0.0426667,76.01
0.048,76.31
0.0533333,76.29
0.0586667,76.41
0.064,76.4
0.0693333,76.36
0.0746667,76.54
0.08,76.5
0.0853333,76.58
0.0906667,76.63
0.096,76.79
0.101333,76.89
0.106667,76.86
0.112,76.83
0.117333,76.84
0.122667,77.05
0.128,76.97
0.133333,76.89
0.138667,76.86
0.144,76.82
0.149333,76.8
0.154667,76.89
0.16,76.81
0.165333,76.74
0.170667,76.65
0.176,76.56
0.181333,76.57
0.186667,76.54
0.192,76.48
0.197333,76.46
0.202667,76.55
0.208,76.5
0.213333,76.5
0.218667,76.47
0.224,76.5
0.229333,76.54
0.234667,76.59
0.24,76.5
0.245333,76.47
0.250667,76.45
0.256,76.38
0.261333,76.4
0.266667,76.35
0.272,76.26
0.277333,76.27
0.282667,76.26
0.288,76.26
0.293333,76.2
0.298667,76.17
0.304,76.15
0.309333,76.08
0.314667,76.03
0.32,75.96
0.325333,75.87
0.330667,75.85
0.336,75.81
0.341333,75.79
0.346667,75.79
0.352,75.79
0.357333,75.74
0.362667,75.68
0.368,75.61
0.373333,75.56
0.378667,75.56
0.384,75.54
0.389333,75.45
0.394667,75.47
0.4,75.41
0.405333,75.42
0.410667,75.34
0.416,75.36
0.421333,75.35
0.426667,75.3
0.432,75.27
0.437333,75.25
0.442667,75.21
0.448,75.23
0.453333,75.23
0.458667,75.15
0.464,75.16
0.469333,75.1
0.474667,75.06
0.48,74.96
0.485333,74.94
0.490667,74.94
0.496,74.89
0.501333,74.84
0.506667,74.76
0.512,74.74
0.517333,74.7
0.522667,74.63
0.528,74.57
0.533333,74.54
0.538667,74.55
0.544,74.42
0.549333,74.37
0.554667,74.29
0.56,74.25
0.565333,74.22
0.570667,74.15
0.576,74.2
0.581333,74.36
0.586667,74.34
0.592,74.27
0.597333,74.23
0.602667,74.28
0.608,74.2
0.613333,74.12
0.618667,74.06
0.624,74.01
0.629333,74.1
0.634667,74.04
0.64,73.94
0.645333,73.89
0.650667,73.81
0.656,73.74
0.661333,73.66
0.666667,73.73
0.672,73.75
0.677333,73.64
0.682667,73.64
0.688,73.7
0.693333,73.71
0.698667,73.68
0.704,73.66
0.709333,73.65
0.714667,73.64
0.72,73.52
0.725333,73.59
0.730667,73.61
0.736,73.61
0.741333,73.67
0.746667,73.71
0.752,73.68
0.757333,73.6
0.762667,73.53
0.768,73.43
0.773333,73.39
0.778667,73.36
0.784,73.33
0.789333,73.24
0.794667,73.2
0.8,73.15
0.805333,73.16
0.810667,73.12
0.816,73.02
0.821333,72.99
0.826667,72.94
0.832,72.93
0.837333,72.93
0.842667,72.9
0.848,72.96
0.853333,72.93
0.858667,72.83
0.864,72.8
0.869333,72.87
0.874667,72.78
0.88,72.66
0.885333,72.74
0.890667,72.77
0.896,72.71
0.901333,72.65
0.906667,72.59
0.912,72.56
0.917333,72.52
0.922667,72.42
0.928,72.34
0.933333,72.25
0.938667,72.29
0.944,72.25
0.949333,72.19
0.954667,72.1
0.96,72.09
0.965333,72.05
0.970667,71.96
0.976,71.92
0.981333,71.87
0.986667,71.81
0.992,71.73
0.997333,71.71
1.002667,71.64
1.008,71.59
1.013333,71.65
1.018667,71.6
1.024,71.58
1.029333,71.57
1.034667,71.54
1.04,71.52
1.045333,71.48
1.050667,71.44
1.056,71.37
1.061333,71.38
1.066667,71.3
1.072,71.26
1.077333,71.19
1.082667,71.21
1.088,71.23
1.093333,71.13
1.098667,71.16
1.104,71.08
1.109333,71.09
1.114667,71.19
1.12,71.19
1.125333,71.17
1.130667,71.09
1.136,71.15
1.141333,71.29
1.146667,71.62
1.152,72.23
1.157333,72.72
1.162667,72.76
1.168,72.91
1.173333,72.93
1.178667,72.9
1.184,72.83
1.189333,72.82
1.194667,72.82
1.2,72.79
1.205333,72.77
1.210667,72.9
1.216,72.91
1.221333,72.9
1.226667,72.97
1.232,72.86
1.237333,72.79
1.242667,72.82
1.248,72.83
1.253333,73.53
1.258667,74.36
1.264,74.94
1.269333,75.15
1.274667,75.23
1.28,75.49
1.285333,75.46
1.290667,75.41
1.296,75.35
1.301333,75.26
1.306667,75.17
1.312,75.08
1.317333,74.94
1.322667,74.8
1.328,74.69
1.333333,74.59
1.338667,74.46
1.344,74.34
1.349333,74.27
1.354667,74.14
1.36,74.03
1.365333,73.94
1.370667,73.81
1.376,73.68
1.381333,73.55
1.386667,73.43
1.392,73.3
1.397333,73.18
1.402667,73.12
1.408,73.01
1.413333,73.01
1.418667,73.22
1.424,73.39
1.429333,73.42
1.434667,73.5
1.44,73.45
1.445333,73.47
1.450667,73.39
1.456,73.27
1.461333,73.17
1.466667,73.05
1.472,72.92
1.477333,72.82
1.482667,72.73
1.488,72.64
1.493333,72.54
1.498667,72.46
1.504,72.34
1.509333,72.29
1.514667,72.2
1.52,72.13
1.525333,72.05
1.530667,71.96
1.536,71.88
1.541333,71.8
1.546667,71.73
1.552,71.69
1.557333,71.58
1.562667,71.48
1.568,71.38
1.573333,71.33
1.578667,71.24
1.584,71.17
1.589333,71.15
1.594667,71.2
1.6,71.15
1.605333,71.15
1.610667,71.08
1.616,71.05
1.621333,70.98
1.626667,70.86
1.632,70.78
1.637333,70.8
1.642667,70.8
1.648,70.68
1.653333,70.61
1.658667,70.59
1.664,70.52
1.669333,70.47
1.674667,70.36
1.68,70.27
1.685333,70.24
1.690667,70.18
1.696,70.08
1.701333,69.99
1.706667,69.97
1.712,69.93
1.717333,69.87
1.722667,69.87
1.728,69.81
1.733333,69.72
1.738667,69.68
1.744,69.73
1.749333,69.63
1.754667,69.55
1.76,69.52
1.765333,69.45
1.770667,69.41
1.776,69.43
1.781333,69.37
1.786667,69.41
1.792,69.36
1.797333,69.28
1.802667,69.32
1.808,69.29
1.813333,69.2
1.818667,69.16
1.824,69.15
1.829333,69.2
1.834667,69.12
1.84,69.03
1.845333,68.99
1.850667,68.9
1.856,68.83
1.861333,68.78
1.866667,68.77
1.872,68.81
1.877333,68.73
1.882667,68.65
1.888,68.64
1.893333,68.67
1.898667,68.64
1.904,68.61
1.909333,68.7
1.914667,68.66
1.92,68.57
1.925333,68.67
1.930667,68.61
1.936,68.57
1.941333,68.56
1.946667,68.72
1.952,68.7
1.957333,68.67
1.962667,68.62
1.968,68.63
1.973333,68.66
1.978667,68.61
1.984,68.54
1.989333,68.65
1.994667,68.61
2,68.65
2.005333,68.69
2.010667,68.71
2.016,68.72
2.021333,68.71
2.026667,68.74
2.032,68.76
2.037333,68.79
2.042667,68.74
2.048,68.79
2.053333,68.77
2.058667,68.89
2.064,68.88
2.069333,68.83
2.074667,68.76
2.08,68.7
2.085333,68.74
2.090667,68.82
2.096,68.8
2.101333,68.74
2.106667,68.73
2.112,68.72
2.117333,68.66
2.122667,68.55
2.128,68.61
2.133333,68.54
2.138667,68.57
2.144,68.67
2.149333,68.59
2.154667,68.53
2.16,68.54
2.165333,68.5
2.170667,68.46
2.176,68.44
2.181333,68.38
2.186667,68.4
2.192,68.51
2.197333,68.52
2.202667,68.53
2.208,68.55
2.213333,68.67
2.218667,68.69
2.224,68.69
2.229333,68.85
2.234667,69.05
2.24,69.14
2.245333,69.45
2.250667,69.62
2.256,69.8
2.261333,69.9
2.266667,70.02
2.272,70.02
2.277333,69.99
2.282667,70.03
2.288,70.05
2.293333,70.02
2.298667,70.03
2.304,70.13
2.309333,70.31
2.314667,70.36
2.32,70.54
2.325333,70.54
2.330667,70.58
2.336,70.98
2.341333,71.28
2.346667,71.59
2.352,71.72
2.357333,71.9
2.362667,72.02
2.368,71.93
2.373333,71.87
2.378667,71.79
2.384,71.73
2.389333,71.84
2.394667,71.87
2.4,72.06
2.405333,72.18
2.410667,72.12
2.416,72.04
2.421333,71.97
2.426667,71.9
2.432,71.77
2.437333,71.72
2.442667,71.64
2.448,71.58
2.453333,71.48
2.458667,71.37
2.464,71.3
2.469333,71.27
2.474667,71.34
2.48,71.34
2.485333,71.26
2.490667,71.2
2.496,71.19
2.501333,71.1
2.506667,71.08
2.512,71.04
2.517333,70.97
2.522667,70.93
2.528,70.98
2.533333,71.14
2.538667,71.62
2.544,72.11
2.549333,72.07
2.554667,72.02
2.56,72.11
2.565333,72.07
2.570667,72.06
2.576,72.17
2.581333,72.22
2.586667,72.31
2.592,72.36
2.597333,72.31
2.602667,72.26
2.608,72.26
2.613333,72.32
2.618667,72.24
2.624,72.23
2.629333,72.16
2.634667,72.18
2.64,72.15
2.645333,72.07
2.650667,72.02
2.656,71.97
2.661333,71.9
2.666667,71.88
2.672,71.86
2.677333,71.79
2.682667,71.76
2.688,71.65
2.693333,71.54
2.698667,71.45
2.704,71.33
2.709333,71.24
2.714667,71.15
2.72,71.07
2.725333,70.92
2.730667,70.86
2.736,70.76
2.741333,70.63
2.746667,70.55
2.752,70.84
2.757333,70.9
2.762667,70.86
2.768,70.82
2.773333,70.8
2.778667,70.88
2.784,70.92
2.789333,70.86
2.794667,70.86
2.8,70.84
2.805333,70.85
2.810667,70.9
2.816,70.9
2.821333,70.84
2.826667,71.03
2.832,71.17
2.837333,71.36
2.842667,71.41
2.848,71.42
2.853333,71.44
2.858667,71.49
2.864,71.64
2.869333,71.71
2.874667,71.68
2.88,71.66
2.885333,71.59
2.890667,71.57
2.896,71.48
2.901333,71.37
2.906667,71.28
2.912,71.37
2.917333,71.33
2.922667,71.28
2.928,71.26
2.933333,71.34
2.938667,71.52
2.944,71.74
2.949333,71.99
2.954667,71.94
2.96,71.97
2.965333,71.97
2.970667,72
2.976,71.98
2.981333,72.1
2.986667,72.17
2.992,72.21
2.997333,72.25
3.002667,72.18
3.008,72.29
3.013333,72.43
3.018667,72.47
3.024,72.43
3.029333,72.4
3.034667,72.36
3.04,72.33
3.045333,72.37
3.050667,72.59
3.056,72.65
3.061333,72.68
3.066667,72.69
3.072,72.94
3.077333,72.9
3.082667,73.03
3.088,73.05
3.093333,73.06
3.098667,73.17
3.104,73.1
3.109333,73.21
3.114667,73.22
3.12,73.24
3.125333,73.35
3.130667,73.48
3.136,73.45
3.141333,73.56
3.146667,73.52
3.152,73.48
3.157333,73.42
3.162667,73.33
3.168,73.29
3.173333,73.37
3.178667,73.48
3.184,73.39
3.189333,73.3
3.194667,73.39
3.2,73.5
3.205333,73.45
3.210667,73.46
3.216,73.55
3.221333,73.52
3.226667,73.56
3.232,73.7
3.237333,73.76
3.242667,73.8
3.248,73.93
3.253333,74.02
3.258667,74.11
3.264,74.09
3.269333,73.96
3.274667,73.96
3.28,73.88
3.285333,73.76
3.290667,73.67
3.296,73.56
3.301333,73.46
3.306667,73.35
3.312,73.29
3.317333,73.3
3.322667,73.25
3.328,73.22
3.333333,73.18
3.338667,73.04
3.344,72.92
3.349333,72.82
3.354667,72.7
3.36,72.64
3.365333,72.57
3.370667,72.45
3.376,72.34
3.381333,72.22
3.386667,72.14
3.392,72.06
3.397333,71.97
3.402667,71.85
3.408,71.83
3.413333,71.89
3.418667,71.82
3.424,71.82
3.429333,71.76
3.434667,71.69
3.44,71.58
3.445333,71.52
3.450667,71.4
3.456,71.29
3.461333,71.19
3.466667,71.11
3.472,71.05
3.477333,70.98
3.482667,70.92
3.488,70.86
3.493333,70.76
3.498667,70.69
3.504,70.57
3.509333,70.44
3.514667,70.32
3.52,70.21
3.525333,70.09
3.530667,70
3.536,69.98
3.541333,69.89
3.546667,69.78
3.552,69.66
3.557333,69.5
3.562667,69.43
3.568,69.35
3.573333,69.3
3.578667,69.22
3.584,69.15
3.589333,69.08
3.594667,68.99
3.6,68.94
3.605333,68.86
3.610667,68.82
3.616,68.77
3.621333,68.63
3.626667,68.56
3.632,68.49
3.637333,68.37
3.642667,68.31
3.648,68.19
3.653333,68.13
3.658667,67.98
3.664,67.93
3.669333,67.9
3.674667,67.85
3.68,67.74
3.685333,67.69
3.690667,67.79
3.696,67.81
3.701333,67.8
3.706667,67.85
3.712,67.84
3.717333,67.81
3.722667,67.81
3.728,67.76
3.733333,67.77
3.738667,67.71
3.744,67.71
3.749333,67.76
3.754667,67.73
3.76,67.76
3.765333,67.72
3.770667,67.63
3.776,67.61
3.781333,67.5
3.786667,67.44
3.792,67.38
3.797333,67.46
3.802667,67.48
3.808,67.4
3.813333,67.4
3.818667,67.31
3.824,67.23
3.829333,67.19
3.834667,67.16
3.84,67.08
3.845333,66.96
3.850667,66.91
3.856,66.88
3.861333,66.82
3.866667,66.75
3.872,66.73
3.877333,66.68
3.882667,66.67
3.888,66.78
3.893333,66.83
3.898667,67.4
3.904,68.32
3.909333,68.91
3.914667,69.69
3.92,69.98
3.925333,70.19
3.930667,70.39
3.936,70.56
3.941333,70.68
3.946667,70.79
3.952,71.1
3.957333,71.21
3.962667,71.19
3.968,71.21
3.973333,71.33
3.978667,71.37
3.984,71.3
3.989333,71.37
3.994667,71.38
4,71.33
4.005333,71.19
4.010667,71.09
4.016,71.04
4.021333,71.05
4.026667,70.94
4.032,70.86
4.037333,70.81
4.042667,70.8
4.048,70.77
4.053333,70.7
4.058667,70.58
4.064,70.54
4.069333,70.42
4.074667,70.42
4.08,70.3
4.085333,70.22
4.090667,70.12
4.096,70.05
4.101333,69.94
4.106667,69.86
4.112,69.77
4.117333,69.67
4.122667,69.64
4.128,69.52
4.133333,69.44
4.138667,69.39
4.144,69.33
4.149333,69.21
4.154667,69.09
4.16,68.96
4.165333,68.86
4.170667,68.78
4.176,68.66
4.181333,68.57
4.186667,68.49
4.192,68.39
4.197333,68.29
4.202667,68.19
4.208,68.06
4.213333,68
4.218667,67.9
4.224,67.76
4.229333,67.66
4.234667,67.59
4.24,67.5
4.245333,67.45
4.250667,67.34
4.256,67.23
4.261333,67.13
4.266667,67.09
4.272,67.04
4.277333,66.94
4.282667,66.84
4.288,66.81
4.293333,66.81
4.298667,66.82
4.304,66.83
4.309333,66.79
4.314667,66.79
4.32,66.73
4.325333,66.66
4.330667,66.58
4.336,66.49
4.341333,66.42
4.346667,66.4
4.352,66.33
4.357333,66.3
4.362667,66.21
4.368,66.17
4.373333,66.17
4.378667,66.22
4.384,66.26
4.389333,66.2
4.394667,66.2
4.4,66.21
4.405333,66.18
4.410667,66.15
4.416,66.19
4.421333,66.24
4.426667,66.26
4.432,66.25
4.437333,66.23
4.442667,66.29
4.448,66.24
4.453333,66.16
4.458667,66.12
4.464,66.11
4.469333,66.13
4.474667,66.05
4.48,66.03
4.485333,66
4.490667,66
4.496,65.94
4.501333,65.97
4.506667,65.94
4.512,65.86
4.517333,65.8
4.522667,65.81
4.528,65.77
4.533333,65.78
4.538667,65.78
4.544,65.74
4.549333,65.68
4.554667,65.56
4.56,65.54
4.565333,65.51
4.570667,65.52
4.576,65.75
4.581333,66.27
4.586667,66.61
4.592,66.74
4.597333,66.77
4.602667,66.72
4.608,66.68
4.613333,66.59
4.618667,66.54
4.624,66.56
4.629333,66.6
4.634667,66.56
4.64,66.62
4.645333,66.62
4.650667,66.56
4.656,66.47
4.661333,66.43
4.666667,66.39
4.672,66.26
4.677333,66.14
4.682667,66.04
4.688,65.94
4.693333,65.88
4.698667,65.78
4.704,65.8
4.709333,65.71
4.714667,65.59
4.72,65.66
4.725333,65.61
4.730667,65.54
4.736,65.65
4.741333,65.69
4.746667,65.74
4.752,65.7
4.757333,65.7
4.762667,65.6
4.768,65.61
4.773333,65.66
4.778667,65.64
4.784,65.63
4.789333,65.6
4.794667,65.49
4.8,65.53
4.805333,65.51
4.810667,65.52
4.816,65.53
4.821333,65.43
4.826667,65.4
4.832,65.5
4.837333,65.52
4.842667,65.56
4.848,65.54
4.853333,65.49
4.858667,65.49
4.864,65.47
4.869333,65.54
4.874667,65.49
4.88,65.49
4.885333,65.47
4.890667,65.49
4.896,65.51
4.901333,65.51
4.906667,65.62
4.912,65.6
4.917333,65.6
4.922667,65.58
4.928,65.64
4.933333,65.64
4.938667,65.63
4.944,65.63
4.949333,65.67
4.954667,65.63
4.96,65.59
4.965333,65.53
4.970667,65.53
4.976,65.49
4.981333,65.44
4.986667,65.38
4.992,65.39
4.997333,65.38
5.002667,65.4
5.008,65.48
5.013333,65.42
5.018667,65.36
5.024,65.33
5.029333,65.32
5.034667,65.26
5.04,65.17
5.045333,65.12
5.050667,65.12
5.056,65.11
5.061333,65.1
5.066667,65.16
5.072,65.21
5.077333,65.15
5.082667,65.12
5.088,65.03
5.093333,64.94
5.098667,65.04
5.104,65.17
5.109333,65.13
5.114667,65.16
5.12,65.22
5.125333,65.17
5.130667,65.16
5.136,65.1
5.141333,65.04
5.146667,64.99
5.152,64.96
5.157333,64.9
5.162667,64.83
5.168,65.34
5.173333,65.86
5.178667,66.06
5.184,66.39
5.189333,66.52
5.194667,66.48
5.2,66.5
5.205333,66.62
5.210667,66.73
5.216,66.95
5.221333,67.17
5.226667,67.52
5.232,67.51
5.237333,67.53
5.242667,67.62
5.248,67.67
5.253333,67.9
5.258667,67.91
5.264,67.85
5.269333,67.88
5.274667,67.88
5.28,67.77
5.285333,67.72
5.290667,67.72
5.296,67.74
5.301333,67.75
5.306667,67.67
5.312,67.66
5.317333,67.57
5.322667,67.49
5.328,67.43
5.333333,67.41
5.338667,67.38
5.344,67.35
5.349333,67.22
5.354667,67.16
5.36,67.13
5.365333,67.04
5.370667,67.02
5.376,66.97
5.381333,67.09
5.386667,67.08
5.392,67.09
5.397333,67.15
5.402667,67.14
5.408,67.27
5.413333,67.42
5.418667,67.42
5.424,67.53
5.429333,67.49
5.434667,67.45
5.44,67.55
5.445333,67.52
5.450667,67.68
5.456,67.67
5.461333,67.61
5.466667,67.55
5.472,67.52
5.477333,67.48
5.482667,67.54
5.488,67.55
5.493333,67.62
5.498667,67.61
5.504,67.56
5.509333,67.56
5.514667,67.54
5.52,67.59
5.525333,67.49
5.530667,67.43
5.536,67.5
5.541333,67.6
5.546667,67.55
5.552,67.51
5.557333,67.43
5.562667,67.37
5.568,67.33
5.573333,67.29
5.578667,67.34
5.584,67.34
5.589333,67.26
5.594667,67.26
5.6,67.3
5.605333,67.41
5.610667,67.35
5.616,67.37
5.621333,67.38
5.626667,67.34
5.632,67.29
5.637333,67.33
5.642667,67.32
5.648,67.26
5.653333,67.3
5.658667,67.29
5.664,67.31
5.669333,67.34
5.674667,67.27
5.68,67.25
5.685333,67.17
5.690667,67.11
5.696,67.09
5.701333,67.07
5.706667,67.33
5.712,67.46
5.717333,67.51
5.722667,67.58
5.728,67.63
5.733333,67.69
5.738667,67.76
5.744,67.81
5.749333,68.03
5.754667,68.12
5.76,68.19
5.765333,68.16
5.770667,68.24
5.776,68.18
5.781333,68.24
5.786667,68.31
5.792,68.29
5.797333,68.25
5.802667,68.15
5.808,68.09
5.813333,68.04
5.818667,68.03
5.824,67.98
5.829333,68.02
5.834667,68.08
5.84,68.11
5.845333,69.01
5.850667,70.08
5.856,70.44
5.861333,71.01
5.866667,71.1
5.872,71.3
5.877333,71.44
5.882667,71.7
5.888,71.65
5.893333,71.72
5.898667,71.98
5.904,72.1
5.909333,72.27
5.914667,72.37
5.92,72.35
5.925333,72.37
5.930667,72.47
5.936,72.48
5.941333,72.57
5.946667,72.46
5.952,72.37
5.957333,72.41
5.962667,72.43
5.968,72.43
5.973333,72.45
5.978667,72.39
5.984,72.31
5.989333,72.2
5.994667,72.34
6,72.32
6.005333,72.24
6.010667,72.16
6.016,72.05
6.021333,71.95
6.026667,71.86
6.032,71.76
6.037333,71.77
6.042667,71.65
6.048,71.59
6.053333,71.47
6.058667,71.36
6.064,71.23
6.069333,71.14
6.074667,71.1
6.08,70.96
6.085333,70.86
6.090667,70.72
6.096,70.62
6.101333,70.54
6.106667,71.61
6.112,72.83
6.117333,74.47
6.122667,76.14
6.128,76.93
6.133333,77.31
6.138667,77.49
6.144,77.84
6.149333,78.24
6.154667,78.38
6.16,78.35
6.165333,78.29
6.170667,78.2
6.176,78.17
6.181333,78.21
6.186667,78.2
6.192,78.3
6.197333,78.25
6.202667,78.16
6.208,78.01
6.213333,77.94
6.218667,77.83
6.224,77.69
6.229333,77.56
6.234667,77.46
6.24,77.45
6.245333,77.35
6.250667,77.35
6.256,77.46
6.261333,77.39
6.266667,77.31
6.272,77.21
6.277333,77.17
6.282667,77.08
6.288,76.95
6.293333,76.9
6.298667,76.88
6.304,76.77
6.309333,76.77
6.314667,76.72
6.32,76.72
6.325333,76.62
6.330667,76.51
6.336,76.38
6.341333,76.25
6.346667,76.11
6.352,75.95
6.357333,75.8
6.362667,75.68
6.368,75.53
6.373333,75.4
6.378667,75.31
6.384,75.2
6.389333,75.1
6.394667,74.99
6.4,74.87
6.405333,74.74
6.410667,74.61
6.416,74.55
6.421333,74.49
6.426667,74.38
6.432,74.39
6.437333,74.3
6.442667,74.24
6.448,74.15
6.453333,74.01
6.458667,73.87
6.464,73.74
6.469333,73.61
6.474667,73.52
6.48,73.41
6.485333,73.28
6.490667,73.14
6.496,73.02
6.501333,72.9
6.506667,72.77
6.512,72.66
6.517333,72.56
6.522667,72.42
6.528,72.27
6.533333,72.15
6.538667,72.09
6.544,71.98
6.549333,71.83
6.554667,71.7
6.56,71.6
6.565333,71.47
6.570667,71.31
6.576,71.16
6.581333,71.01
6.586667,70.89
6.592,70.77
6.597333,70.66
6.602667,70.56
6.608,70.43
6.613333,70.29
6.618667,70.15
6.624,70.04
6.629333,69.92
6.634667,69.83
6.64,69.69
6.645333,69.6
6.650667,69.5
6.656,69.39
6.661333,69.26
6.666667,69.13
6.672,68.99
6.677333,68.85
6.682667,68.74
6.688,68.63
6.693333,68.51
6.698667,68.45
6.704,68.45
6.709333,68.33
6.714667,68.22
6.72,68.17
6.725333,68.07
6.730667,67.96
6.736,67.9
6.741333,67.8
6.746667,67.7
6.752,67.64
6.757333,67.51
6.762667,67.45
6.768,67.38
6.773333,67.32
6.778667,67.22
6.784,67.1
6.789333,66.99
6.794667,66.95
6.8,66.9
6.805333,66.79
6.810667,66.68
6.816,66.56
6.821333,66.45
6.826667,66.38
6.832,66.27
6.837333,66.28
6.842667,66.27
6.848,66.19
6.853333,66.2
6.858667,66.15
6.864,66.1
6.869333,66.05
6.874667,66
6.88,65.93
6.885333,65.85
6.890667,65.76
6.896,65.66
6.901333,65.55
6.906667,65.5
6.912,65.4
6.917333,65.34
6.922667,65.32
6.928,65.31
6.933333,65.2
6.938667,65.1
6.944,65.09
6.949333,65.07
6.954667,65.08
6.96,65.02
6.965333,65.02
6.970667,65.02
6.976,65.13
6.981333,65.14
6.986667,65.29
6.992,65.37
6.997333,65.54
7.002667,65.57
7.008,65.6
7.013333,65.61
7.018667,65.62
7.024,65.61
7.029333,65.76
7.034667,65.8
7.04,65.81
7.045333,66.17
7.050667,66.31
7.056,66.44
7.061333,66.5
7.066667,66.54
7.072,66.58
7.077333,66.69
7.082667,66.76
7.088,66.65
7.093333,66.68
7.098667,66.67
7.104,66.71
7.109333,66.76
7.114667,66.87
7.12,66.95
7.125333,67.19
7.130667,67.42
7.136,67.45
7.141333,67.36
7.146667,67.41
7.152,67.58
7.157333,67.62
7.162667,67.69
7.168,67.79
7.173333,68.11
7.178667,68.27
7.184,68.29
7.189333,68.2
7.194667,68.28
7.2,68.37
7.205333,68.39
7.210667,68.39
7.216,68.42
7.221333,68.4
7.226667,68.43
7.232,68.38
7.237333,68.34
7.242667,68.28
7.248,68.33
7.253333,68.26
7.258667,68.29
7.264,68.37
7.269333,68.39
7.274667,68.36
7.28,68.46
7.285333,68.56
7.290667,68.55
7.296,68.56
7.301333,68.61
7.306667,68.67
7.312,68.75
7.317333,68.79
7.322667,68.78
7.328,68.76
7.333333,68.76
7.338667,69.35
7.344,69.7
7.349333,70.48
7.354667,70.69
7.36,71.04
7.365333,71.57
7.370667,71.58
7.376,71.76
7.381333,71.8
7.386667,72.01
7.392,71.97
7.397333,72.01
7.402667,72
7.408,71.99
7.413333,72.01
7.418667,71.91
7.424,71.8
7.429333,71.84
7.434667,71.95
7.44,72.04
7.445333,72.25
7.450667,72.26
7.456,72.21
7.461333,72.09
7.466667,72.27
7.472,72.22
7.477333,72.15
7.482667,72.13
7.488,72.02
7.493333,72.06
7.498667,72.22
7.504,72.28
7.509333,72.25
7.514667,72.38
7.52,72.39
7.525333,72.37
7.530667,72.48
7.536,72.54
7.541333,72.56
7.546667,72.54
7.552,72.54
7.557333,72.52
7.562667,72.48
7.568,72.4
7.573333,72.51
7.578667,72.43
7.584,72.4
7.589333,72.37
7.594667,72.28
7.6,72.18
7.605333,72.1
7.610667,72.03
7.616,71.93
7.621333,71.95
7.626667,72.12
7.632,72.03
7.637333,71.98
7.642667,71.92
7.648,71.8
7.653333,71.66
7.658667,71.54
7.664,71.5
7.669333,71.46
7.674667,71.43
7.68,71.35
7.685333,71.27
7.690667,71.17
7.696,71.06
7.701333,71.02
7.706667,70.99
7.712,70.91
7.717333,70.78
7.722667,70.66
7.728,70.59
7.733333,70.54
7.738667,70.43
7.744,70.33
7.749333,70.26
7.754667,70.17
7.76,70.09
7.765333,69.99
7.770667,69.88
7.776,69.8
7.781333,69.78
7.786667,69.71
7.792,69.61
7.797333,69.52
7.802667,69.46
7.808,69.32
7.813333,69.22
7.818667,69.15
7.824,69.15
7.829333,69.07
7.834667,69.04
7.84,68.95
7.845333,68.84
7.850667,68.77
7.856,68.73
7.861333,68.63
7.866667,68.58
7.872,68.55
7.877333,68.44
7.882667,68.38
7.888,68.33
7.893333,68.24
7.898667,68.15
7.904,68.06
7.909333,67.97
7.914667,67.91
7.92,67.89
7.925333,67.79
7.930667,67.67
7.936,67.67
7.941333,67.58
7.946667,67.51
7.952,67.43
7.957333,67.39
7.962667,67.35
7.968,67.24
7.973333,67.19
7.978667,67.08
7.984,67
7.989333,66.95
7.994667,66.96
8,66.92
8.005333,66.89
8.010667,66.91
8.016,66.97
8.021333,67.02
8.026667,67.07
8.032,67.1
8.037333,67.03
8.042667,67.01
8.048,67
8.053333,66.91
8.058667,66.88
8.064,67.28
8.069333,67.57
8.074667,67.88
8.08,67.99
8.085333,68.18
8.090667,68.42
8.096,68.43
8.101333,68.62
8.106667,68.6
8.112,68.62
8.117333,68.68
8.122667,68.71
8.128,68.8
8.133333,68.79
8.138667,68.73
8.144,68.67
8.149333,68.78
8.154667,68.73
8.16,68.66
8.165333,68.66
8.170667,68.63
8.176,68.55
8.181333,68.48
8.186667,68.45
8.192,68.38
8.197333,68.44
8.202667,68.41
8.208,68.33
8.213333,68.4
8.218667,68.4
8.224,68.35
8.229333,68.33
8.234667,68.26
8.24,68.37
8.245333,68.43
8.250667,68.33
8.256,68.39
8.261333,68.36
8.266667,68.31
8.272,68.24
8.277333,68.18
8.282667,68.13
8.288,68.11
8.293333,68.05
8.298667,67.94
8.304,67.81
8.309333,67.72
8.314667,67.59
8.32,67.5
8.325333,67.51
8.330667,67.61
8.336,67.67
8.341333,67.6
8.346667,67.5
8.352,67.46
8.357333,67.41
8.362667,67.36
8.368,67.44
8.373333,67.34
8.378667,67.28
8.384,67.26
8.389333,67.17
8.394667,67.16
8.4,67.09
8.405333,67.03
8.410667,66.99
8.416,66.92
8.421333,66.85
8.426667,66.77
8.432,66.71
8.437333,66.73
8.442667,66.73
8.448,66.64
8.453333,66.86
8.458667,66.84
8.464,66.79
8.469333,66.73
8.474667,66.72
8.48,66.63
8.485333,66.55
8.490667,66.56
8.496,66.58
8.501333,66.56
8.506667,66.52
8.512,66.52
8.517333,66.5
8.522667,66.62
8.528,66.57
8.533333,66.63
8.538667,66.74
8.544,66.72
8.549333,66.69
8.554667,66.89
8.56,66.96
8.565333,67.25
8.570667,67.25
8.576,67.28
8.581333,67.27
8.586667,67.26
8.592,67.38
8.597333,67.46
8.602667,67.36
8.608,67.25
8.613333,67.23
8.618667,67.2
8.624,67.2
8.629333,67.18
8.634667,67.17
8.64,67.15
8.645333,67.07
8.650667,67.06
8.656,66.97
8.661333,66.91
8.666667,66.86
8.672,66.74
8.677333,66.61
8.682667,66.58
8.688,66.56
8.693333,66.47
8.698667,66.45
8.704,66.37
8.709333,66.35
8.714667,66.24
8.72,66.3
8.725333,66.24
8.730667,66.17
8.736,66.07
8.741333,66.18
8.746667,66.14
8.752,66.1
8.757333,66.08
8.762667,66.13
8.768,66.03
8.773333,66.18
8.778667,66.14
8.784,66.1
8.789333,66.08
8.794667,66.03
8.8,66.01
8.805333,65.94
8.810667,65.89
8.816,65.8
8.821333,65.69
8.826667,65.63
8.832,65.54
8.837333,65.54
8.842667,65.47
8.848,65.38
8.853333,65.35
8.858667,65.35
8.864,65.34
8.869333,65.3
8.874667,65.28
8.88,65.28
8.885333,65.2
8.890667,65.24
8.896,65.21
8.901333,65.23
8.906667,65.22
8.912,65.19
8.917333,65.14
8.922667,65.05
8.928,65.01
8.933333,64.94
8.938667,64.92
8.944,64.81
8.949333,64.77
8.954667,64.69
8.96,64.74
8.965333,64.72
8.970667,64.69
8.976,64.72
8.981333,64.78
8.986667,64.86
8.992,64.98
8.997333,65.09
9.002667,65.4
9.008,65.51
9.013333,65.62
9.018667,65.81
9.024,66.03
9.029333,66.16
9.034667,66.2
9.04,66.28
9.045333,66.36
9.050667,66.38
9.056,66.49
9.061333,66.5
9.066667,66.44
9.072,66.46
9.077333,66.45
9.082667,66.54
9.088,66.52
9.093333,66.45
9.098667,66.5
9.104,66.48
9.109333,66.44
9.114667,66.36
9.12,66.31
9.125333,66.38
9.130667,66.32
9.136,66.38
9.141333,66.29
9.146667,66.28
9.152,66.21
9.157333,66.38
9.162667,66.91
9.168,67.37
9.173333,67.43
9.178667,67.5
9.184,67.83
9.189333,67.86
9.194667,68.06
9.2,68.17
9.205333,68.17
9.210667,68.25
9.216,68.71
9.221333,68.94
9.226667,68.99
9.232,69
9.237333,69.07
9.242667,69.13
9.248,69.13
9.253333,69.35
9.258667,69.6
9.264,69.8
9.269333,70
9.274667,70.13
9.28,70.41
9.285333,70.67
9.290667,70.71
9.296,70.75
9.301333,70.84
9.306667,70.76
9.312,70.77
9.317333,70.7
9.322667,70.65
9.328,70.6
9.333333,70.58
9.338667,70.58
9.344,70.59
9.349333,70.53
9.354667,70.46
9.36,70.37
9.365333,70.32
9.370667,70.3
9.376,70.21
9.381333,70.11
9.386667,70.02
9.392,69.97
9.397333,69.88
9.402667,69.75
9.408,69.63
9.413333,69.6
9.418667,69.56
9.424,69.42
9.429333,69.35
9.434667,69.29
9.44,69.22
9.445333,69.14
9.450667,69.01
9.456,68.89
9.461333,68.81
9.466667,68.71
9.472,68.62
9.477333,68.48
9.482667,68.42
9.488,68.39
9.493333,68.28
9.498667,68.2
9.504,68.12
9.509333,68
9.514667,67.87
9.52,67.79
9.525333,67.7
9.530667,67.63
9.536,67.52
9.541333,67.6
9.546667,67.55
9.552,67.45
9.557333,67.32
9.562667,67.23
9.568,67.11
9.573333,67.04
9.578667,66.93
9.584,66.85
9.589333,66.75
9.594667,66.69
9.6,66.58
9.605333,66.54
9.610667,66.49
9.616,66.4
9.621333,66.33
9.626667,66.32
9.632,66.27
9.637333,66.26
9.642667,66.18
9.648,66.13
9.653333,66.1
9.658667,66.05
9.664,65.98
9.669333,65.86
9.674667,65.92
9.68,65.98
9.685333,66.14
9.690667,66.19
9.696,66.21
9.701333,66.29
9.706667,66.2
9.712,66.14
9.717333,66.14
9.722667,66.09
9.728,66.07
9.733333,66.05
9.738667,66.11
9.744,66.14
9.749333,66.25
9.754667,66.23
9.76,66.34
9.765333,66.25
9.770667,66.24
9.776,66.26
9.781333,66.31
9.786667,66.33
9.792,66.32
9.797333,66.22
9.802667,66.2
9.808,66.12
9.813333,66.08
9.818667,66.06
9.824,66.01
9.829333,65.93
9.834667,66.02
9.84,66.05
9.845333,66.18
9.850667,66.11
9.856,66.08
9.861333,66.05
9.866667,66.09
9.872,66.05
9.877333,65.98
9.882667,65.9
9.888,65.9
9.893333,65.85
9.898667,65.82
9.904,65.76
9.909333,65.67
9.914667,65.63
9.92,65.6
9.925333,65.52
9.930667,65.44
9.936,65.36
9.941333,65.31
9.946667,65.33
9.952,65.25
9.957333,65.17
9.962667,65.17
9.968,65.11
9.973333,64.99
9.978667,64.9
9.984,64.81
9.989333,64.78
9.994667,64.75
10,64.77
10.005333,64.85
10.010667,65
10.016,65
10.021333,65.07
10.026667,65.14
10.032,65.19
10.037333,65.31
10.042667,65.43
10.048,65.4
10.053333,65.34
10.058667,65.36
10.064,65.38
10.069333,65.4
10.074667,65.31
10.08,65.31
10.085333,65.25
10.090667,65.24
10.096,65.19
10.101333,65.17
10.106667,65.1
10.112,65.08
10.117333,65.04
10.122667,64.97
10.128,64.94
10.133333,64.88
10.138667,64.94
10.144,64.97
10.149333,64.95
10.154667,65.46
10.16,65.79
10.165333,65.94
10.170667,66.26
10.176,66.41
10.181333,66.55
10.186667,66.63
10.192,66.93
10.197333,66.9
10.202667,66.81
10.208,66.76
10.213333,66.74
10.218667,66.68
10.224,66.57
10.229333,66.45
10.234667,66.32
10.24,66.21
10.245333,66.12
10.250667,66.05
10.256,65.91
10.261333,65.86
10.266667,65.78
10.272,65.72
10.277333,65.71
10.282667,65.65
10.288,65.65
10.293333,65.56
10.298667,65.54
10.304,65.42
10.309333,65.43
10.314667,65.4
10.32,65.33
10.325333,65.29
10.330667,65.25
10.336,65.3
10.341333,65.35
10.346667,65.39
10.352,65.3
10.357333,65.27
10.362667,65.2
10.368,65.09
10.373333,65.07
10.378667,65.01
10.384,65
10.389333,65
10.394667,65.01
10.4,65.1
10.405333,65.13
10.410667,65.3
10.416,65.52
10.421333,65.55
10.426667,65.52
10.432,65.52
10.437333,65.63
10.442667,65.64
10.448,65.69
10.453333,65.69
10.458667,65.68
10.464,65.68
10.469333,65.63
10.474667,65.61
10.48,65.55
10.485333,65.53
10.490667,65.58
10.496,65.49
10.501333,65.48
10.506667,65.44
10.512,65.56
10.517333,65.79
10.522667,66.07
10.528,66.69
10.533333,67.16
10.538667,67.64
10.544,67.84
10.549333,67.98
10.554667,68.19
10.56,68.3
10.565333,68.27
10.570667,68.28
10.576,68.25
10.581333,68.2
10.586667,68.16
10.592,68.15
10.597333,68.18
10.602667,68.12
10.608,68.16
10.613333,68.11
10.618667,67.98
10.624,67.93
10.629333,67.84
10.634667,67.84
10.64,67.76
10.645333,67.67
10.650667,67.57
10.656,67.53
10.661333,67.48
10.666667,67.38
10.672,67.36
10.677333,67.25
10.682667,67.14
10.688,67.04
10.693333,67.01
10.698667,66.92
10.704,66.82
10.709333,66.77
10.714667,66.73
10.72,66.7
10.725333,66.61
10.730667,66.62
10.736,66.52
10.741333,66.45
10.746667,66.47
10.752,66.42
10.757333,66.52
10.762667,66.47
10.768,66.44
10.773333,66.38
10.778667,66.37
10.784,66.27
10.789333,66.28
10.794667,66.2
10.8,66.16
10.805333,66.08
10.810667,66.03
10.816,65.93
10.821333,65.81
10.826667,65.81
10.832,65.75
10.837333,65.75
10.842667,65.72
10.848,65.69
10.853333,65.6
10.858667,65.52
10.864,65.61
10.869333,65.65
10.874667,65.57
10.88,65.55
10.885333,65.57
10.890667,65.56
10.896,65.49
10.901333,65.45
10.906667,65.39
10.912,65.48
10.917333,65.45
10.922667,65.34
10.928,65.31
10.933333,65.2
10.938667,65.17
10.944,65.22
10.949333,65.24
10.954667,65.39
10.96,65.3
10.965333,65.3
10.970667,65.32
10.976,65.24
10.981333,65.25
10.986667,65.28
10.992,65.21
10.997333,65.15
11.002667,65.07
11.008,65.05
11.013333,65.04
11.018667,65.06
11.024,65.01
11.029333,65.08
11.034667,65.14
11.04,65.21
11.045333,65.34
11.050667,65.41
11.056,65.99
11.061333,66.35
11.066667,66.63
11.072,66.79
11.077333,67.18
11.082667,67.51
11.088,67.85
11.093333,68.22
11.098667,68.8
11.104,69.39
11.109333,69.9
11.114667,70.03
11.12,70.11
11.125333,70.13
11.130667,70.2
11.136,70.22
11.141333,70.36
11.146667,70.5
11.152,70.56
11.157333,70.58
11.162667,70.53
11.168,70.45
11.173333,70.43
11.178667,70.45
11.184,70.48
11.189333,70.6
11.194667,70.57
11.2,70.63
11.205333,70.57
11.210667,70.5
11.216,70.4
11.221333,70.31
11.226667,70.19
11.232,70.05
11.237333,69.92
11.242667,69.81
11.248,69.74
11.253333,69.61
11.258667,69.52
11.264,69.4
11.269333,69.28
11.274667,69.21
11.28,69.09
11.285333,69
11.290667,68.86
11.296,68.74
11.301333,68.63
11.306667,68.57
11.312,68.49
11.317333,68.36
11.322667,68.23
11.328,68.1
11.333333,67.99
11.338667,67.87
11.344,67.73
11.349333,67.63
11.354667,67.55
11.36,67.45
11.365333,67.35
11.370667,67.21
11.376,67.12
11.381333,67.02
11.386667,66.91
11.392,66.81
11.397333,66.71
11.402667,66.65
11.408,66.52
11.413333,66.42
11.418667,66.3
11.424,66.19
11.429333,66.1
11.434667,66.03
11.44,65.92
11.445333,65.8
11.450667,65.73
11.456,65.61
11.461333,65.52
11.466667,65.39
11.472,65.32
11.477333,65.35
11.482667,65.32
11.488,65.28
11.493333,65.33
11.498667,65.26
11.504,65.22
11.509333,65.25
11.514667,65.57
11.52,66.16
11.525333,66.71
11.530667,67.05
11.536,67.04
11.541333,67.18
11.546667,67.28
11.552,67.5
11.557333,67.75
11.562667,68.14
11.568,68.53
11.573333,68.75
11.578667,68.96
11.584,69.24
11.589333,69.54
11.594667,69.71
11.6,69.83
11.605333,69.79
11.610667,69.69
11.616,69.63
11.621333,69.68
11.626667,69.65
11.632,69.54
11.637333,69.49
11.642667,69.42
11.648,69.31
11.653333,69.2
11.658667,69.12
11.664,69.01
11.669333,68.88
11.674667,68.78
11.68,68.65
11.685333,68.54
11.690667,68.42
11.696,68.65
11.701333,68.63
11.706667,68.57
11.712,68.43
11.717333,68.29
11.722667,68.22
11.728,68.1
11.733333,67.96
11.738667,67.86
11.744,67.82
11.749333,67.73
11.754667,67.6
11.76,67.5
11.765333,67.44
11.770667,67.34
11.776,67.28
11.781333,67.2
11.786667,67.1
11.792,67.04
11.797333,66.98
11.802667,66.89
11.808,66.77
11.813333,66.64
11.818667,66.53
11.824,66.44
11.829333,66.34
11.834667,66.29
11.84,66.17
11.845333,66.09
11.850667,66.02
11.856,65.97
11.861333,65.9
11.866667,65.82
11.872,65.88
11.877333,65.87
11.882667,65.82
11.888,65.82
11.893333,65.87
11.898667,66.03
11.904,66.08
11.909333,66.23
11.914667,66.33
11.92,66.51
11.925333,66.75
11.930667,66.95
11.936,66.99
11.941333,67.11
11.946667,67.06
11.952,66.94
11.957333,66.84
11.962667,66.72
11.968,66.62
11.973333,66.51
11.978667,66.4
11.984,66.26
11.989333,66.18
11.994667,66.13
12,66.28
12.005333,66.41
12.010667,66.64
12.016,66.9
12.021333,66.94
12.026667,67.03
12.032,67.04
12.037333,67.29
12.042667,67.22
12.048,67.1
12.053333,67.07
12.058667,66.99
12.064,67
12.069333,66.9
12.074667,66.78
12.08,66.69
12.085333,66.68
12.090667,66.62
12.096,66.56
12.101333,66.52
12.106667,66.5
12.112,66.47
12.117333,66.45
12.122667,66.4
12.128,66.33
12.133333,66.25
12.138667,66.24
12.144,66.16
12.149333,66.1
12.154667,66.12
12.16,66.03
12.165333,65.94
12.170667,65.85
12.176,65.9
12.181333,66.16
12.186667,66.66
12.192,67.7
12.197333,69.06
12.202667,69.59
12.208,69.87
12.213333,70.36
12.218667,70.71
12.224,71.02
12.229333,71.3
12.234667,71.41
12.24,71.43
12.245333,71.29
12.250667,71.15
12.256,71.04
12.261333,70.91
12.266667,70.77
12.272,70.66
12.277333,70.59
12.282667,70.48
12.288,70.39
12.293333,70.33
12.298667,70.2
12.304,70.1
12.309333,69.96
12.314667,69.87
12.32,69.8
12.325333,69.71
12.330667,69.57
12.336,69.43
12.341333,69.34
12.346667,69.23
12.352,69.15
12.357333,69.06
12.362667,69
12.368,68.92
12.373333,68.91
12.378667,68.81
12.384,68.7
12.389333,68.59
12.394667,68.6
12.4,68.56
12.405333,68.45
12.410667,68.39
12.416,68.3
12.421333,68.24
12.426667,68.26
12.432,68.23
12.437333,68.12
12.442667,68.06
12.448,67.97
12.453333,67.9
12.458667,67.81
12.464,67.75
12.469333,67.65
12.474667,67.58
12.48,67.44
12.485333,67.33
12.490667,67.24
12.496,67.13
12.501333,67.03
12.506667,67.01
12.512,66.94
12.517333,66.9
12.522667,66.92
12.528,66.89
12.533333,66.92
12.538667,66.98
12.544,67.08
12.549333,67.37
12.554667,67.43
12.56,67.65
12.565333,67.7
12.570667,67.73
12.576,67.94
12.581333,68.15
12.586667,68.21
12.592,68.29
12.597333,68.68
12.602667,68.65
12.608,68.65
12.613333,68.6
12.618667,68.53
12.624,68.43
12.629333,68.36
12.634667,68.36
12.64,68.32
12.645333,68.25
12.650667,68.15
12.656,68.03
12.661333,67.92
12.666667,67.85
12.672,67.84
12.677333,67.76
12.682667,67.66
12.688,67.62
12.693333,67.51
12.698667,67.65
12.704,67.67
12.709333,67.73
12.714667,67.69
12.72,67.62
12.725333,67.51
12.730667,67.48
12.736,67.38
12.741333,67.45
12.746667,67.4
12.752,67.48
12.757333,67.39
12.762667,67.37
12.768,67.26
12.773333,67.15
12.778667,67.11
12.784,67.15
12.789333,67.05
12.794667,66.94
12.8,66.81
12.805333,66.71
12.810667,66.64
12.816,66.57
12.821333,66.47
12.826667,66.41
12.832,66.32
12.837333,66.27
12.842667,66.19
12.848,66.1
12.853333,66.07
12.858667,66
12.864,66.13
12.869333,66.58
12.874667,67.21
12.88,67.45
12.885333,67.57
12.890667,67.74
12.896,67.85
12.901333,68.14
12.906667,68.16
12.912,68.35
12.917333,68.42
12.922667,68.57
12.928,68.54
12.933333,68.58
12.938667,68.92
12.944,69.06
12.949333,69.11
12.954667,69.03
12.96,69.01
12.965333,68.92
12.970667,68.82
12.976,68.75
12.981333,68.74
12.986667,68.67
12.992,68.63
12.997333,68.58
13.002667,68.56
13.008,68.56
13.013333,68.62
13.018667,68.65
13.024,68.73
13.029333,68.75
13.034667,68.75
13.04,68.78
13.045333,68.69
13.050667,68.57
13.056,68.49
13.061333,68.39
13.066667,68.27
13.072,68.15
13.077333,68
13.082667,67.87
13.088,67.75
13.093333,67.68
13.098667,67.59
13.104,67.49
13.109333,67.35
13.114667,67.24
13.12,67.19
13.125333,67.25
13.130667,67.22
13.136,67.14
13.141333,67.1
13.146667,67.02
13.152,66.95
13.157333,66.85
13.162667,66.8
13.168,66.7
13.173333,66.59
13.178667,66.51
13.184,66.42
13.189333,66.4
13.194667,66.32
13.2,66.32
13.205333,66.28
13.210667,66.24
13.216,66.12
13.221333,66.16
13.226667,66.08
13.232,66.02
13.237333,65.99
13.242667,66.75
13.248,66.67
13.253333,66.65
13.258667,66.52
13.264,66.41
13.269333,66.3
13.274667,66.23
13.28,66.18
13.285333,66.05
13.290667,66.01
13.296,66.03
13.301333,66
13.306667,65.93
13.312,65.93
13.317333,66.12
13.322667,66.11
13.328,66.01
13.333333,66.04
13.338667,66.14
13.344,66.05
13.349333,66.04
13.354667,66.02
13.36,65.94
13.365333,65.91
13.370667,65.95
13.376,65.89
13.381333,65.83
13.386667,65.77
13.392,65.71
13.397333,65.72
13.402667,65.67
13.408,65.67
13.413333,65.67
13.418667,65.71
13.424,65.66
13.429333,65.66
13.434667,65.84
13.44,65.8
13.445333,65.94
13.450667,66.02
13.456,66.05
13.461333,66.04
13.466667,66.11
13.472,66.04
13.477333,66.12
13.482667,66.12
13.488,66.72
13.493333,66.96
13.498667,67.04
13.504,67.25
13.509333,67.28
13.514667,67.37
13.52,67.62
13.525333,67.63
13.530667,67.69
13.536,67.65
13.541333,67.71
13.546667,67.7
13.552,67.74
13.557333,67.69
13.562667,67.59
13.568,67.5
13.573333,67.42
13.578667,67.35
13.584,67.28
13.589333,67.16
13.594667,67.15
13.6,67.06
13.605333,66.96
13.610667,66.82
13.616,66.75
13.621333,66.67
13.626667,66.55
13.632,66.48
13.637333,66.47
13.642667,66.35
13.648,66.24
13.653333,66.15
13.658667,66.08
13.664,65.96
13.669333,65.88
13.674667,65.78
13.68,65.64
13.685333,65.53
13.690667,65.44
13.696,65.34
13.701333,65.26
13.706667,65.21
13.712,65.14
13.717333,65.04
13.722667,65.02
13.728,65.05
13.733333,64.97
13.738667,64.99
13.744,64.97
13.749333,64.86
13.754667,64.89
13.76,64.96
13.765333,65.02
13.770667,65.1
13.776,65.15
13.781333,65.19
13.786667,65.22
13.792,65.27
13.797333,65.25
13.802667,65.3
13.808,65.34
13.813333,65.39
13.818667,65.41
13.824,65.33
13.829333,65.37
13.834667,65.32
13.84,65.31
13.845333,65.27
13.850667,65.19
13.856,65.17
13.861333,65.1
13.866667,65.04
13.872,65.02
13.877333,64.9
13.882667,64.85
13.888,64.81
13.893333,64.82
13.898667,64.78
13.904,64.79
13.909333,64.79
13.914667,64.9
13.92,64.88
13.925333,64.9
13.930667,64.93
13.936,64.96
13.941333,64.92
13.946667,64.95
13.952,65.01
13.957333,65.03
13.962667,65
13.968,64.91
13.973333,64.8
13.978667,64.73
13.984,64.66
13.989333,64.65
13.994667,64.6
14,64.57
14.005333,64.59
14.010667,64.54
14.016,64.54
14.021333,64.59
14.026667,64.57
14.032,64.58
14.037333,64.61
14.042667,64.87
14.048,64.83
14.053333,64.88
14.058667,64.8
14.064,64.8
14.069333,64.93
14.074667,64.95
14.08,64.95
14.085333,64.98
14.090667,64.95
14.096,64.89
14.101333,64.9
14.106667,64.8
14.112,64.84
14.117333,64.85
14.122667,64.77
14.128,64.77
14.133333,64.67
14.138667,64.61
14.144,64.57
14.149333,64.5
14.154667,64.44
14.16,64.38
14.165333,64.4
14.170667,64.37
14.176,64.39
14.181333,64.62
14.186667,64.65
14.192,64.64
14.197333,64.69
14.202667,64.61
14.208,64.64
14.213333,64.65
14.218667,64.65
14.224,64.61
14.229333,64.57
14.234667,64.55
14.24,64.61
14.245333,64.57
14.250667,64.54
14.256,64.61
14.261333,64.58
14.266667,64.55
14.272,64.63
14.277333,64.69
14.282667,64.77
14.288,65.33
14.293333,65.86
14.298667,65.83
14.304,65.83
14.309333,65.88
14.314667,65.87
14.32,65.89
14.325333,65.83
14.330667,65.83
14.336,65.78
14.341333,65.78
14.346667,65.83
14.352,65.73
14.357333,65.65
14.362667,65.63
14.368,65.58
14.373333,65.5
14.378667,65.44
14.384,65.87
14.389333,66.43
14.394667,66.53
14.4,66.56
14.405333,66.46
14.410667,66.36
14.416,66.29
14.421333,66.28
14.426667,66.2
14.432,66.11
14.437333,66.06
14.442667,66.01
14.448,66.02
14.453333,66.04
14.458667,66.06
14.464,66.04
14.469333,65.94
14.474667,65.84
14.48,65.76
14.485333,65.75
14.490667,65.64
14.496,65.57
14.501333,65.49
14.506667,65.74
14.512,66.19
14.517333,66.6
14.522667,66.94
14.528,67.79
14.533333,68.39
14.538667,68.97
14.544,69.4
14.549333,69.42
14.554667,69.3
14.56,69.14
14.565333,68.99
14.570667,68.84
14.576,68.69
14.581333,68.58
14.586667,68.45
14.592,68.3
14.597333,68.15
14.602667,68.05
14.608,67.99
14.613333,67.91
14.618667,67.82
14.624,67.76
14.629333,67.64
14.634667,67.6
14.64,67.55
14.645333,67.45
14.650667,67.41
14.656,67.34
14.661333,67.22
14.666667,67.13
14.672,67.02
14.677333,66.97
14.682667,66.86
14.688,66.82
14.693333,66.69
14.698667,66.55
14.704,66.46
14.709333,66.38
14.714667,66.31
14.72,66.23
14.725333,66.14
14.730667,66.02
14.736,65.91
14.741333,65.82
14.746667,65.76
14.752,65.62
14.757333,65.54
14.762667,65.45
14.768,65.43
14.773333,65.43
14.778667,65.39
14.784,65.53
14.789333,65.68
14.794667,65.67
14.8,65.75
14.805333,65.84
14.810667,65.95
14.816,66.03
14.821333,66
14.826667,66.04
14.832,66.31
14.837333,66.33
14.842667,66.36
14.848,66.57
14.853333,66.66
14.858667,66.68
14.864,66.83
14.869333,67.09
14.874667,67.08
14.88,67.07
14.885333,67.32
14.890667,67.33
14.896,67.37
14.901333,67.36
14.906667,67.54
14.912,67.78
14.917333,67.78
14.922667,67.65
14.928,67.72
14.933333,67.89
14.938667,67.89
14.944,67.79
14.949333,67.87
14.954667,67.87
14.96,67.89
14.965333,67.81
14.970667,67.86
14.976,67.88
14.981333,67.84
14.986667,67.91
14.992,67.93
14.997333,67.89
15.002667,67.83
15.008,67.9
15.013333,68.07
15.018667,68.21
15.024,68.21
15.029333,68.15
15.034667,68.18
15.04,68.13
15.045333,68.08
15.050667,68
15.056,67.87
15.061333,67.78
15.066667,67.68
15.072,67.6
15.077333,67.49
15.082667,67.36
15.088,67.27
15.093333,67.92
15.098667,67.98
15.104,68.03
15.109333,67.97
15.114667,68.03
15.12,68.08
15.125333,68.11
15.130667,68.07
15.136,67.99
15.141333,67.85
15.146667,67.75
15.152,67.66
15.157333,67.54
15.162667,67.4
15.168,67.31
15.173333,67.2
15.178667,67.09
15.184,67
15.189333,66.88
15.194667,66.82
15.2,66.7
15.205333,66.56
15.210667,66.52
15.216,66.49
15.221333,66.52
15.226667,66.47
15.232,66.38
15.237333,66.32
15.242667,66.25
15.248,68.16
15.253333,68.26
15.258667,68.17
15.264,68.14
15.269333,68.07
15.274667,67.98
15.28,68
15.285333,67.94
15.290667,67.88
15.296,67.83
15.301333,67.72
15.306667,67.64
15.312,67.6
15.317333,67.49
15.322667,67.92
15.328,68.76
15.333333,68.65
15.338667,68.55
15.344,68.54
15.349333,68.49
15.354667,68.35
15.36,68.26
15.365333,68.18
15.370667,68.04
15.376,67.96
15.381333,67.84
15.386667,67.69
15.392,67.59
15.397333,67.44
15.402667,67.35
15.408,67.23
15.413333,67.11
15.418667,67.01
15.424,66.89
15.429333,66.79
15.434667,66.65
15.44,66.55
15.445333,66.46
15.450667,66.33
15.456,66.21
15.461333,66.11
15.466667,65.99
15.472,65.89
15.477333,65.85
15.482667,65.78
15.488,65.72
15.493333,65.68
15.498667,65.56
15.504,65.46
15.509333,65.34
15.514667,65.27
15.52,65.29
15.525333,65.22
15.530667,65.21
15.536,65.11
15.541333,65.04
15.546667,64.94
15.552,64.8
15.557333,64.76
15.562667,64.73
15.568,64.73
15.573333,64.66
15.578667,64.61
15.584,64.51
15.589333,64.43
15.594667,64.32
15.6,64.22
15.605333,64.22
15.610667,64.13
15.616,64.15
15.621333,64.18
15.626667,64.49
15.632,64.46
15.637333,64.39
15.642667,64.3
15.648,64.25
15.653333,64.23
15.658667,64.17
15.664,64.14
15.669333,64.12
15.674667,64.09
15.68,64.03
15.685333,64.25
15.690667,64.29
15.696,64.28
15.701333,64.21
15.706667,64.15
15.712,64.22
15.717333,64.11
15.722667,64.09
15.728,64.06
15.733333,63.99
15.738667,63.97
15.744,63.93
15.749333,63.97
15.754667,63.95
15.76,63.88
15.765333,63.97
15.770667,63.9
15.776,63.86
15.781333,63.86
15.786667,63.95
15.792,63.89
15.797333,63.84
15.802667,63.88
15.808,63.85
15.813333,63.84
15.818667,64.02
15.824,64.01
15.829333,63.94
15.834667,63.87
15.84,63.91
15.845333,63.84
15.850667,63.73
15.856,63.69
15.861333,63.66
15.866667,63.72
15.872,63.67
15.877333,63.67
15.882667,63.61
15.888,63.57
15.893333,63.51
15.898667,63.46
15.904,63.49
15.909333,63.38
15.914667,63.29
15.92,63.25
15.925333,63.21
15.930667,63.17
15.936,63.1
15.941333,63.13
15.946667,63.18
15.952,63.18
15.957333,63.09
15.962667,63.11
15.968,63.16
15.973333,63.07
15.978667,63.19
15.984,63.17
15.989333,63.16
15.994667,63.2
16,63.22
16.005333,63.19
16.010667,63.21
16.016,63.19
16.021333,63.17
16.026667,63.11
16.032,63.07
16.037333,63.11
16.042667,63.09
16.048,63.09
16.053333,63.13
16.058667,63.17
16.064,63.09
16.069333,63.21
16.074667,63.18
16.08,63.19
16.085333,63.15
16.090667,63.16
16.096,63.25
16.101333,63.22
16.106667,63.19
16.112,63.28
16.117333,63.23
16.122667,63.15
16.128,63.06
16.133333,63.07
16.138667,63.14
16.144,63.07
16.149333,63.07
16.154667,63.16
16.16,63.15
16.165333,63.2
16.170667,63.18
16.176,63.16
16.181333,63.2
16.186667,63.14
16.192,63.12
16.197333,63.28
16.202667,63.27
16.208,63.29
16.213333,63.33
16.218667,63.34
16.224,63.34
16.229333,63.41
16.234667,63.47
16.24,63.43
16.245333,63.5
16.250667,63.62
16.256,63.58
16.261333,63.54
16.266667,63.73
16.272,63.82
16.277333,63.74
16.282667,63.73
16.288,63.75
16.293333,63.69
16.298667,63.67
16.304,63.63
16.309333,63.69
16.314667,63.74
16.32,63.98
16.325333,64.06
16.330667,64.07
16.336,63.97
16.341333,63.94
16.346667,63.97
16.352,64.13
16.357333,64.14
16.362667,64.16
16.368,64.05
16.373333,64.04
16.378667,64.07
16.384,64.04
16.389333,63.99
16.394667,63.95
16.4,63.94
16.405333,63.92
16.410667,63.93
16.416,63.92
16.421333,63.91
16.426667,63.91
16.432,64.07
16.437333,64.03
16.442667,63.97
16.448,63.9
16.453333,64.01
16.458667,63.99
16.464,63.91
16.469333,63.91
16.474667,63.87
16.48,63.96
16.485333,63.89
16.490667,63.84
16.496,63.77
16.501333,63.78
16.506667,63.75
16.512,63.71
16.517333,63.75
16.522667,63.7
16.528,63.71
16.533333,63.73
16.538667,63.8
16.544,63.78
16.549333,63.79
16.554667,63.88
16.56,63.9
16.565333,63.83
16.570667,63.82
16.576,63.89
16.581333,63.86
16.586667,63.78
16.592,63.73
16.597333,63.69
16.602667,63.92
16.608,63.88
16.613333,63.83
16.618667,63.79
16.624,63.8
16.629333,63.77
16.634667,63.7
16.64,63.78
16.645333,63.69
16.650667,63.72
16.656,63.78
16.661333,63.8
16.666667,63.77
16.672,63.77
16.677333,63.73
16.682667,63.76
16.688,63.8
16.693333,63.88
16.698667,63.85
16.704,63.79
16.709333,63.76
16.714667,63.77
16.72,63.78
16.725333,63.69
16.730667,63.82
16.736,63.77
16.741333,63.68
16.746667,63.58
16.752,63.55
16.757333,63.54
16.762667,63.46
16.768,63.49
16.773333,63.48
16.778667,63.42
16.784,63.38
16.789333,63.39
16.794667,63.39
16.8,63.34
16.805333,63.39
16.810667,63.34
16.816,63.38
16.821333,63.36
16.826667,63.31
16.832,63.27
16.837333,63.23
16.842667,63.57
16.848,63.45
16.853333,63.38
16.858667,63.31
16.864,63.28
16.869333,63.22
16.874667,63.19
16.88,63.17
16.885333,63.1
16.890667,63.15
16.896,63.07
16.901333,63.03
16.906667,63.07
16.912,63.11
16.917333,63.08
16.922667,63.09
16.928,63.2
16.933333,63.23
16.938667,63.17
16.944,63.17
16.949333,63.38
16.954667,63.59
16.96,63.99
16.965333,64.58
16.970667,65.11
16.976,65.7
16.981333,66.11
16.986667,66.55
16.992,66.82
16.997333,66.91
17.002667,67.03
17.008,67.05
17.013333,67.3
17.018667,67.43
17.024,67.5
17.029333,67.53
17.034667,67.49
17.04,67.57
17.045333,67.56
17.050667,67.52
17.056,67.42
17.061333,67.32
17.066667,67.19
17.072,67.12
17.077333,67.05
17.082667,66.96
17.088,66.88
17.093333,66.75
17.098667,66.65
17.104,66.54
17.109333,66.43
17.114667,66.33
17.12,66.22
17.125333,66.12
17.130667,66.12
17.136,66.1
17.141333,66.15
17.146667,66.05
17.152,65.94
17.157333,65.86
17.162667,65.78
17.168,65.69
17.173333,65.57
17.178667,65.46
17.184,65.35
17.189333,65.27
17.194667,65.21
17.2,65.13
17.205333,65.03
17.210667,64.9
17.216,64.86
17.221333,64.72
17.226667,64.59
17.232,64.64
17.237333,64.56
17.242667,64.64
17.248,64.69
17.253333,64.74
17.258667,65.09
17.264,65.19
17.269333,65.4
17.274667,65.63
17.28,65.66
17.285333,65.69
17.290667,65.66
17.296,65.67
17.301333,65.7
17.306667,65.69
17.312,65.68
17.317333,65.71
17.322667,65.62
17.328,65.52
17.333333,65.5
17.338667,65.46
17.344,65.39
17.349333,65.42
17.354667,65.33
17.36,65.32
17.365333,65.32
17.370667,65.53
17.376,65.82
17.381333,65.88
17.386667,66.01
17.392,66.28
17.397333,66.47
17.402667,66.66
17.408,66.78
17.413333,67.14
17.418667,67.09
17.424,67.04
17.429333,67.13
17.434667,67.12
17.44,67.08
17.445333,66.97
17.450667,66.96
17.456,66.9
17.461333,66.79
17.466667,66.75
17.472,66.68
17.477333,66.59
17.482667,66.51
17.488,66.41
17.493333,66.34
17.498667,66.19
17.504,66.13
17.509333,66.1
17.514667,65.97
17.52,65.92
17.525333,65.9
17.530667,65.81
17.536,65.67
17.541333,65.58
17.546667,65.57
17.552,65.64
17.557333,65.78
17.562667,65.69
17.568,65.67
17.573333,65.67
17.578667,65.71
17.584,65.71
17.589333,65.69
17.594667,65.68
17.6,65.7
17.605333,65.73
17.610667,65.69
17.616,65.66
17.621333,65.54
17.626667,65.48
17.632,65.39
17.637333,65.34
17.642667,65.58
17.648,65.98
17.653333,66.35
17.658667,66.44
17.664,66.57
17.669333,66.58
17.674667,66.71
17.68,66.77
17.685333,66.74
17.690667,66.66
17.696,66.63
17.701333,66.62
17.706667,66.59
17.712,66.54
17.717333,66.48
17.722667,66.43
17.728,66.35
17.733333,66.35
17.738667,66.26
17.744,66.22
17.749333,66.24
17.754667,66.22
17.76,66.19
17.765333,66.28
17.770667,66.28
17.776,66.23
17.781333,66.28
17.786667,66.33
17.792,66.27
17.797333,66.21
17.802667,66.17
17.808,66.1
17.813333,66.3
17.818667,66.34
17.824,66.54
17.829333,66.58
17.834667,66.56
17.84,66.63
17.845333,66.68
17.850667,66.74
17.856,66.72
17.861333,66.66
17.866667,66.63
17.872,66.61
17.877333,66.6
17.882667,66.62
17.888,66.68
17.893333,66.61
17.898667,66.59
17.904,66.71
17.909333,66.65
17.914667,66.75
17.92,66.73
17.925333,66.71
17.930667,66.66
17.936,66.71
17.941333,66.76
17.946667,66.74
17.952,66.73
17.957333,66.71
17.962667,66.71
17.968,66.82
17.973333,66.92
17.978667,66.91
17.984,66.93
17.989333,66.88
17.994667,66.87
18,66.82
18.005333,66.9
18.010667,66.94
18.016,66.94
18.021333,67.3
18.026667,67.32
18.032,67.35
18.037333,67.5
18.042667,67.43
18.048,67.43
18.053333,67.47
18.058667,67.53
18.064,67.47
18.069333,67.59
18.074667,67.68
18.08,67.7
18.085333,67.69
18.090667,67.74
18.096,67.77
18.101333,67.9
18.106667,67.82
18.112,67.88
18.117333,67.93
18.122667,67.92
18.128,67.96
18.133333,67.98
18.138667,67.98
18.144,68.1
18.149333,68.23
18.154667,68.21
18.16,68.28
18.165333,68.24
18.170667,68.33
18.176,68.28
18.181333,68.26
18.186667,68.17
18.192,68.2
18.197333,68.33
18.202667,68.47
18.208,68.38
18.213333,68.46
18.218667,68.51
18.224,68.58
18.229333,68.83
18.234667,68.83
18.24,68.95
18.245333,69.05
18.250667,68.98
18.256,69.03
18.261333,69
18.266667,69.12
18.272,69.11
18.277333,69.16
18.282667,69.1
18.288,69.1
18.293333,69.1
18.298667,69.13
18.304,69.13
18.309333,69.09
18.314667,69.03
18.32,69.16
18.325333,69.18
18.330667,69.31
18.336,69.31
18.341333,69.36
18.346667,69.47
18.352,69.52
18.357333,69.6
18.362667,69.95
18.368,70.15
18.373333,70.3
18.378667,70.41
18.384,70.67
18.389333,70.69
18.394667,70.82
18.4,71.12
18.405333,71.36
18.410667,71.39
18.416,71.45
18.421333,71.52
18.426667,71.53
18.432,71.71
18.437333,71.71
18.442667,71.75
18.448,71.76
18.453333,71.93
18.458667,71.92
18.464,71.98
18.469333,71.89
18.474667,71.84
18.48,71.87
18.485333,71.82
18.490667,71.79
18.496,71.8
18.501333,71.69
18.506667,71.67
18.512,71.63
18.517333,71.57
18.522667,71.54
18.528,71.5
18.533333,71.53
18.538667,71.52
18.544,71.49
18.549333,71.48
18.554667,71.48
18.56,71.6
18.565333,71.61
18.570667,71.57
18.576,71.47
18.581333,71.36
18.586667,71.31
18.592,71.4
18.597333,71.36
18.602667,71.29
18.608,71.24
18.613333,71.25
18.618667,71.18
18.624,71.11
18.629333,71.08
18.634667,71
18.64,70.92
18.645333,70.97
18.650667,70.93
18.656,71.01
18.661333,71.13
18.666667,71.13
18.672,71.07
18.677333,71
18.682667,71.02
18.688,71.01
18.693333,70.96
18.698667,71.05
18.704,71.06
18.709333,70.97
18.714667,70.98
18.72,71.07
18.725333,71.03
18.730667,70.97
18.736,70.98
18.741333,70.99
18.746667,71.09
18.752,71.18
18.757333,71.19
18.762667,71.21
18.768,71.17
18.773333,71.2
18.778667,71.21
18.784,71.34
18.789333,71.41
18.794667,71.43
18.8,71.37
18.805333,71.42
18.810667,71.44
18.816,71.38
18.821333,71.38
18.826667,71.37
18.832,71.35
18.837333,71.32
18.842667,71.3
18.848,71.26
18.853333,71.31
18.858667,71.3
18.864,71.25
18.869333,71.18
18.874667,71.17
18.88,71.11
18.885333,71.06
18.890667,71.06
18.896,71.13
18.901333,71.06
18.906667,70.98
18.912,71.11
18.917333,71.04
18.922667,71
18.928,71.03
18.933333,71.01
18.938667,71.04
18.944,71.04
18.949333,71.07
18.954667,70.99
18.96,70.97
18.965333,71.08
18.970667,70.99
18.976,70.96
18.981333,70.94
18.986667,71.03
18.992,70.94
18.997333,70.87
19.002667,70.93
19.008,70.83
19.013333,70.76
19.018667,70.82
19.024,70.83
19.029333,70.89
19.034667,70.91
19.04,70.82
19.045333,70.77
19.050667,70.79
19.056,70.8
19.061333,70.81
19.066667,70.77
19.072,70.77
19.077333,70.75
19.082667,70.89
19.088,70.91
19.093333,71.06
19.098667,71
19.104,71.17
19.109333,71.12
19.114667,71.15
19.12,71.14
19.125333,71.16
19.130667,71.1
19.136,70.99
19.141333,71.03
19.146667,70.98
19.152,70.94
19.157333,70.98
19.162667,71.04
19.168,71.06
19.173333,70.97
19.178667,70.94
19.184,71.01
19.189333,71
19.194667,71.07
19.2,71.05
19.205333,71.14
19.210667,71.12
19.216,71.04
19.221333,71.04
19.226667,71.14
19.232,71.15
19.237333,71.22
19.242667,71.12
19.248,71.18
19.253333,71.27
19.258667,71.26
19.264,71.33
19.269333,71.4
19.274667,71.43
19.28,71.37
19.285333,71.36
19.290667,71.41
19.296,71.41
19.301333,71.52
19.306667,71.44
19.312,71.35
19.317333,71.37
19.322667,71.4
19.328,71.34
19.333333,71.32
19.338667,71.28
19.344,71.21
19.349333,71.09
19.354667,71.01
19.36,71.03
19.365333,71.07
19.370667,70.97
19.376,71.09
19.381333,71.15
19.386667,71.04
19.392,70.94
19.397333,70.94
19.402667,70.88
19.408,71.04
19.413333,71.16
19.418667,71.28
19.424,71.35
19.429333,71.5
19.434667,71.46
19.44,71.47
19.445333,71.61
19.450667,71.6
19.456,71.62
19.461333,71.6
19.466667,71.56
19.472,71.52
19.477333,71.47
19.482667,71.4
19.488,71.36
19.493333,71.31
19.498667,71.26
19.504,71.21
19.509333,71.21
19.514667,71.25
19.52,71.34
19.525333,71.28
19.530667,71.26
19.536,71.22
19.541333,71.29
19.546667,71.28
19.552,71.25
19.557333,71.39
19.562667,71.55
19.568,71.51
19.573333,71.48
19.578667,71.53
19.584,71.55
19.589333,71.61
19.594667,71.67
19.6,71.65
19.605333,71.7
19.610667,71.7
19.616,71.74
19.621333,71.76
19.626667,71.8
19.632,71.8
19.637333,71.83
19.642667,71.87
19.648,71.87
19.653333,71.81
19.658667,71.74
19.664,71.87
19.669333,71.91
19.674667,71.81
19.68,71.86
19.685333,71.97
19.690667,71.98
19.696,72.01
19.701333,72.1
19.706667,72.13
19.712,72.15
19.717333,72.17
19.722667,72.19
19.728,72.24
19.733333,72.3
19.738667,72.33
19.744,72.28
19.749333,72.45
19.754667,72.53
19.76,72.56
19.765333,72.56
19.770667,72.54
19.776,72.55
19.781333,72.71
19.786667,72.87
19.792,72.89
19.797333,73.02
19.802667,73.05
19.808,73.12
19.813333,73.09
19.818667,73.05
19.824,73.04
19.829333,73.09
19.834667,73.15
19.84,73.07
19.845333,73.07
19.850667,73.06
19.856,73.04
19.861333,72.99
19.866667,73.1
19.872,73.12
19.877333,73.13
19.882667,73.38
19.888,73.39
19.893333,73.5
19.898667,73.53
19.904,73.6
19.909333,73.55
19.914667,73.64
19.92,73.62
19.925333,73.71
19.930667,73.71
19.936,73.71
19.941333,73.68
19.946667,73.64
19.952,73.65
19.957333,73.6
19.962667,73.51
19.968,73.45
19.973333,73.4
19.978667,73.43
19.984,73.4
19.989333,73.42
19.994667,73.33
20,73.28
20.005333,73.31
20.010667,73.27
20.016,73.4
20.021333,73.44
20.026667,73.44
20.032,73.43
20.037333,73.36
20.042667,73.36
20.048,73.33
20.053333,73.37
20.058667,73.33
20.064,73.43
20.069333,73.63
20.074667,73.72
20.08,73.88
20.085333,73.9
20.090667,73.95
20.096,73.95
20.101333,74.08
20.106667,74.24
20.112,74.35
20.117333,74.5
20.122667,74.54
20.128,74.72
20.133333,74.81
20.138667,74.77
20.144,74.77
20.149333,74.82
20.154667,74.79
20.16,74.76
20.165333,74.74
20.170667,74.69
20.176,74.61
20.181333,74.59
20.186667,74.56
20.192,74.48
20.197333,74.42
20.202667,74.32
20.208,74.44
20.213333,74.42
20.218667,74.3
20.224,74.23
20.229333,74.18
20.234667,74.15
20.24,74.1
20.245333,74.06
20.250667,73.99
20.256,74.01
20.261333,73.9
20.266667,73.84
20.272,73.76
20.277333,73.72
20.282667,73.7
20.288,73.66
20.293333,73.67
20.298667,73.76
20.304,73.89
20.309333,73.93
20.314667,74.15
20.32,74.35
20.325333,74.46
20.330667,74.53
20.336,74.57
20.341333,74.55
20.346667,74.52
20.352,74.61
20.357333,74.76
20.362667,74.73
20.368,74.71
20.373333,74.78
20.378667,74.81
20.384,74.87
20.389333,74.83
20.394667,74.82
20.4,74.82
20.405333,74.84
20.410667,74.89
20.416,74.96
20.421333,74.96
20.426667,75.01
20.432,75.11
20.437333,75.21
20.442667,75.33
20.448,75.35
20.453333,75.42
20.458667,75.58
20.464,75.8
20.469333,75.9
20.474667,76.03
20.48,76.2
20.485333,76.21
20.490667,76.38
20.496,76.37
20.501333,76.34
20.506667,76.31
20.512,76.32
20.517333,76.32
20.522667,76.32
20.528,76.31
20.533333,76.3
20.538667,76.34
20.544,76.3
20.549333,76.25
20.554667,76.29
20.56,76.23
20.565333,76.18
20.570667,76.25
20.576,76.3
20.581333,76.24
20.586667,76.24
20.592,76.2
20.597333,76.21
20.602667,76.25
20.608,76.28
20.613333,76.34
20.618667,76.37
20.624,76.31
20.629333,76.3
20.634667,76.24
20.64,76.27
20.645333,76.3
20.650667,76.26
20.656,76.25
20.661333,76.21
20.666667,76.18
20.672,76.16
20.677333,76.11
20.682667,76.11
20.688,76.07
20.693333,76
20.698667,75.93
20.704,75.97
20.709333,75.97
20.714667,76.11
20.72,76.16
20.725333,76.11
20.730667,76.09
20.736,76.02
20.741333,75.98
20.746667,75.9
20.752,75.89
20.757333,76.04
20.762667,75.98
20.768,75.94
20.773333,75.95
20.778667,75.92
20.784,76.07
20.789333,76.04
20.794667,76.13
20.8,76.08
20.805333,76.03
20.810667,76.01
20.816,76.06
20.821333,76.03
20.826667,75.99
20.832,75.98
20.837333,76.1
20.842667,76.11
20.848,76.08
20.853333,76.23
20.858667,76.37
20.864,76.39
20.869333,76.39
20.874667,76.51
20.88,76.54
20.885333,76.73
20.890667,76.7
20.896,76.7
20.901333,76.89
20.906667,76.81
20.912,76.81
20.917333,76.84
20.922667,76.94
20.928,76.86
20.933333,76.84
20.938667,76.92
20.944,76.88
20.949333,76.93
20.954667,76.89
20.96,76.88
20.965333,76.85
20.970667,76.84
20.976,76.79
20.981333,76.72
20.986667,76.66
20.992,76.6
20.997333,76.53
21.002667,76.48
21.008,76.57
21.013333,76.6
21.018667,76.59
21.024,76.58
21.029333,76.62
21.034667,76.67
21.04,76.66
21.045333,76.6
21.050667,76.66
21.056,76.7
21.061333,76.7
21.066667,76.82
21.072,76.82
21.077333,76.86
21.082667,77
21.088,77.06
21.093333,77.05
21.098667,76.99
21.104,76.96
21.109333,76.98
21.114667,77.18
21.12,77.27
21.125333,77.23
21.130667,77.19
21.136,77.15
21.141333,77.11
21.146667,77.17
21.152,77.13
21.157333,77.25
21.162667,77.19
21.168,77.17
21.173333,77.2
21.178667,77.16
21.184,77.24
21.189333,77.37
21.194667,77.39
21.2,77.49
21.205333,77.61
21.210667,77.56
21.216,77.65
21.221333,77.58
21.226667,77.51
21.232,77.54
21.237333,77.62
21.242667,77.59
21.248,77.75
21.253333,77.78
21.258667,77.77
21.264,77.75
21.269333,78.06
21.274667,78.29
21.28,78.22
21.285333,78.2
21.290667,78.22
21.296,78.27
21.301333,78.28
21.306667,78.31
21.312,78.25
21.317333,78.37
21.322667,78.35
21.328,78.35
21.333333,78.36
21.338667,78.41
21.344,78.37
21.349333,78.36
21.354667,78.48
21.36,78.47
21.365333,78.55
21.370667,78.78
21.376,78.79
21.381333,78.83
21.386667,78.9
21.392,78.84
21.397333,78.83
21.402667,78.86
21.408,79.02
21.413333,79.01
21.418667,79.04
21.424,79.05
21.429333,79.15
21.434667,79.27
21.44,79.29
21.445333,79.37
21.450667,79.35
21.456,79.44
21.461333,79.47
21.466667,79.41
21.472,79.4
21.477333,79.45
21.482667,79.4
21.488,79.49
21.493333,79.47
21.498667,79.49
21.504,79.54
21.509333,79.68
21.514667,79.69
21.52,79.68
21.525333,79.75
21.530667,79.67
21.536,79.63
21.541333,79.66
21.546667,79.64
21.552,79.64
21.557333,79.6
21.562667,79.69
21.568,79.62
21.573333,79.71
21.578667,79.8
21.584,79.82
21.589333,79.87
21.594667,79.95
21.6,79.98
21.605333,79.91
21.610667,80.02
21.616,79.96
21.621333,79.92
21.626667,79.98
21.632,80.08
21.637333,80.08
21.642667,80.01
21.648,80.09
21.653333,80.13
21.658667,80.13
21.664,80.16
21.669333,80.26
21.674667,80.23
21.68,80.16
21.685333,80.22
21.690667,80.17
21.696,80.08
21.701333,80.09
21.706667,80.06
21.712,80.05
21.717333,80.03
21.722667,80.06
21.728,80.01
21.733333,79.94
21.738667,80.01
21.744,79.92
21.749333,79.91
21.754667,79.92
21.76,79.86
21.765333,79.75
21.770667,79.8
21.776,79.76
21.781333,79.71
21.786667,79.69
21.792,79.69
21.797333,79.61
21.802667,79.58
21.808,79.51
21.813333,79.63
21.818667,79.66
21.824,79.72
21.829333,79.78
21.834667,79.73
21.84,79.68
21.845333,79.69
21.850667,79.69
21.856,79.63
21.861333,79.57
21.866667,79.62
21.872,79.56
21.877333,79.52
21.882667,79.5
21.888,79.42
21.893333,79.35
21.898667,79.29
21.904,79.3
21.909333,79.19
21.914667,79.2
21.92,79.15
21.925333,79.06
21.930667,79.02
21.936,78.96
21.941333,78.93
21.946667,78.79
21.952,78.76
21.957333,78.75
21.962667,78.69
21.968,78.7
21.973333,78.61
21.978667,78.56
21.984,78.5
21.989333,78.48
21.994667,78.46
22,78.42
22.005333,78.39
22.010667,78.32
22.016,78.33
22.021333,78.28
22.026667,78.2
22.032,78.24
22.037333,78.17
22.042667,78.14
22.048,78.04
22.053333,78.05
22.058667,77.95
22.064,77.88
22.069333,77.81
22.074667,77.8
22.08,77.74
22.085333,77.65
22.090667,77.58
22.096,77.53
22.101333,77.4
22.106667,77.32
22.112,77.28
22.117333,77.18
22.122667,77.1
22.128,77.02
22.133333,76.95
22.138667,76.87
22.144,76.8
22.149333,76.77
22.154667,76.65
22.16,76.61
22.165333,76.58
22.170667,76.59
22.176,76.51
22.181333,76.44
22.186667,76.37
22.192,76.29
22.197333,76.22
22.202667,76.24
22.208,76.23
22.213333,76.17
22.218667,76.09
22.224,76.09
22.229333,76.03
22.234667,75.99
22.24,75.92
22.245333,75.9
22.250667,75.82
22.256,75.76
22.261333,75.67
22.266667,75.7
22.272,75.67
22.277333,75.64
22.282667,75.57
22.288,75.52
22.293333,75.42
22.298667,75.32
22.304,75.32
22.309333,75.34
22.314667,75.34
22.32,75.33
22.325333,75.37
22.330667,75.3
22.336,75.31
22.341333,75.26
22.346667,75.2
22.352,75.21
22.357333,75.19
22.362667,75.12
22.368,75.16
22.373333,75.17
22.378667,75.15
22.384,75.19
22.389333,75.22
22.394667,75.23
22.4,75.15
22.405333,75.26
22.410667,75.29
22.416,75.24
22.421333,75.24
22.426667,75.17
22.432,75.14
22.437333,75.16
22.442667,75.27
22.448,75.22
22.453333,75.34
22.458667,75.27
22.464,75.27
22.469333,75.2
22.474667,75.19
22.48,75.2
22.485333,75.22
22.490667,75.16
22.496,75.24
22.501333,75.18
22.506667,75.08
22.512,75.12
22.517333,75.13
22.522667,75.13
22.528,75.11
22.533333,75.03
22.538667,75.04
22.544,75.08
22.549333,75.11
22.554667,75.02
22.56,75.02
22.565333,74.97
22.570667,75.02
22.576,74.99
22.581333,75.09
22.586667,75.15
22.592,75.1
22.597333,75.14
22.602667,75.09
22.608,75.1
22.613333,74.99
22.618667,74.99
22.624,74.91
22.629333,74.88
22.634667,74.76
22.64,74.69
22.645333,74.72
22.650667,74.68
22.656,74.63
22.661333,74.6
22.666667,74.64
22.672,74.59
22.677333,74.64
22.682667,74.74
22.688,74.76
22.693333,74.71
22.698667,74.66
22.704,74.61
22.709333,74.53
22.714667,74.51
22.72,74.56
22.725333,74.53
22.730667,74.47
22.736,74.61
22.741333,74.63
22.746667,74.64
22.752,74.55
22.757333,74.55
22.762667,74.53
22.768,74.58
22.773333,74.55
22.778667,74.54
22.784,74.53
22.789333,74.49
22.794667,74.44
22.8,74.37
22.805333,74.32
22.810667,74.31
22.816,74.37
22.821333,74.29
22.826667,74.33
22.832,74.39
22.837333,74.35
22.842667,74.32
22.848,74.32
22.853333,74.33
22.858667,74.32
22.864,74.28
22.869333,74.36
22.874667,74.39
22.88,74.44
22.885333,74.43
22.890667,74.47
22.896,74.49
22.901333,74.47
22.906667,74.49
22.912,74.45
22.917333,74.59
22.922667,74.61
22.928,74.66
22.933333,74.65
22.938667,74.63
22.944,74.64
22.949333,74.6
22.954667,74.6
22.96,74.58
22.965333,74.6
22.970667,74.61
22.976,74.59
22.981333,74.55
22.986667,74.5
22.992,74.45
22.997333,74.43
23.002667,74.37
23.008,74.4
23.013333,74.38
23.018667,74.43
23.024,74.44
23.029333,74.46
23.034667,74.51
23.04,74.53
23.045333,74.48
23.050667,74.42
23.056,74.43
23.061333,74.42
23.066667,74.37
23.072,74.27
23.077333,74.21
23.082667,74.17
23.088,74.09
23.093333,74.14
23.098667,74.09
23.104,74.08
23.109333,74.03
23.114667,73.99
23.12,73.99
23.125333,74.02
23.130667,74.02
23.136,73.92
23.141333,73.91
23.146667,73.92
23.152,73.89
23.157333,73.88
23.162667,73.8
23.168,73.77
23.173333,73.76
23.178667,73.69
23.184,73.7
23.189333,73.69
23.194667,73.65
23.2,73.61
23.205333,73.56
23.210667,73.52
23.216,73.44
23.221333,73.39
23.226667,73.28
23.232,73.24
23.237333,73.19
23.242667,73.2
23.248,73.16
23.253333,73.11
23.258667,73.07
23.264,72.99
23.269333,72.92
23.274667,72.84
23.28,72.79
23.285333,72.76
23.290667,72.76
23.296,72.66
23.301333,72.58
23.306667,72.53
23.312,72.45
23.317333,72.41
23.322667,72.41
23.328,72.37
23.333333,72.4
23.338667,72.42
23.344,72.4
23.349333,72.45
23.354667,72.41
23.36,72.33
23.365333,72.38
23.370667,72.27
23.376,72.26
23.381333,72.26
23.386667,72.18
23.392,72.16
23.397333,72.14
23.402667,72.12
23.408,72.11
23.413333,72.27
23.418667,72.24
23.424,72.25
23.429333,72.17
23.434667,72.2
23.44,72.18
23.445333,72.19
23.450667,72.18
23.456,72.22
23.461333,72.2
23.466667,72.36
23.472,72.33
23.477333,72.26
23.482667,72.24
23.488,72.47
23.493333,72.38
23.498667,72.36
23.504,72.42
23.509333,72.4
23.514667,72.35
23.52,72.47
23.525333,72.46
23.530667,72.42
23.536,72.43
23.541333,72.35
23.546667,72.36
23.552,72.37
23.557333,72.34
23.562667,72.26
23.568,72.23
23.573333,72.17
23.578667,72.13
23.584,72.12
23.589333,72.1
23.594667,72.01
23.6,72.11
23.605333,72.09
23.610667,72.1
23.616,72.21
23.621333,72.19
23.626667,72.26
23.632,72.34
23.637333,72.25
23.642667,72.31
23.648,72.31
23.653333,72.28
23.658667,72.27
23.664,72.32
23.669333,72.35
23.674667,72.38
23.68,72.3
23.685333,72.44
23.690667,72.47
23.696,72.59
23.701333,72.61
23.706667,72.64
23.712,72.65
23.717333,72.72
23.722667,72.74
23.728,72.7
23.733333,72.69
23.738667,72.65
23.744,72.62
23.749333,72.54
23.754667,72.61
23.76,72.65
23.765333,72.65
23.770667,72.79
23.776,72.76
23.781333,72.74
23.786667,72.72
23.792,72.73
23.797333,72.77
23.802667,72.75
23.808,72.85
23.813333,72.85
23.818667,72.8
23.824,72.82
23.829333,72.76
23.834667,72.71
23.84,72.67
23.845333,72.78
23.850667,72.73
23.856,72.67
23.861333,72.69
23.866667,72.7
23.872,72.86
23.877333,72.92
23.882667,72.92
23.888,72.87
23.893333,72.85
23.898667,72.76
23.904,72.84
23.909333,72.99
23.914667,72.96
23.92,72.95
23.925333,72.96
23.930667,72.94
23.936,73
23.941333,73.03
23.946667,72.99
23.952,72.94
23.957333,72.89
23.962667,72.92
23.968,72.9
23.973333,72.88
23.978667,72.98
23.984,72.93
23.989333,73.02
23.994667,72.98
24,72.97
24.005333,73
24.010667,73.01
24.016,72.99
24.021333,72.97
24.026667,73.01
24.032,72.96
24.037333,72.93
24.042667,72.96
24.048,72.91
24.053333,72.99
24.058667,72.93
24.064,73
24.069333,72.89
24.074667,72.87
24.08,72.77
24.085333,72.8
24.090667,72.75
24.096,72.73
24.101333,72.74
24.106667,72.73
24.112,72.73
24.117333,72.69
24.122667,72.66
24.128,72.69
24.133333,72.63
24.138667,72.64
24.144,72.57
24.149333,72.49
24.154667,72.47
24.16,72.4
24.165333,72.38
24.170667,72.46
24.176,72.44
24.181333,72.42
24.186667,72.36
24.192,72.43
24.197333,72.47
24.202667,72.43
24.208,72.49
24.213333,72.39
24.218667,72.38
24.224,72.42
24.229333,72.47
24.234667,72.53
24.24,72.51
24.245333,72.5
24.250667,72.46
24.256,72.43
24.261333,72.39
24.266667,72.39
24.272,72.51
24.277333,72.52
24.282667,72.48
24.288,72.51
24.293333,72.64
24.298667,72.57
24.304,72.6
24.309333,72.56
24.314667,72.53
24.32,72.55
24.325333,72.63
24.330667,72.63
24.336,72.58
24.341333,72.58
24.346667,72.69
24.352,72.73
24.357333,72.71
24.362667,72.73
24.368,72.66
24.373333,72.67
24.378667,72.64
24.384,72.63
24.389333,72.61
24.394667,72.53
24.4,72.64
24.405333,72.64
24.410667,72.63
24.416,72.82
24.421333,72.77
24.426667,72.84
24.432,72.82
24.437333,72.77
24.442667,72.7
24.448,72.66
24.453333,72.68
24.458667,72.71
24.464,72.7
24.469333,72.62
24.474667,72.64
24.48,72.61
24.485333,72.65
24.490667,72.63
24.496,72.56
24.501333,72.53
24.506667,72.54
24.512,72.6
24.517333,72.6
24.522667,72.6
24.528,72.51
24.533333,72.42
24.538667,72.42
24.544,72.41
24.549333,72.42
24.554667,72.42
24.56,72.42
24.565333,72.44
24.570667,72.42
24.576,72.4
24.581333,72.33
24.586667,72.32
24.592,72.35
24.597333,72.39
24.602667,72.41
24.608,72.53
24.613333,72.54
24.618667,72.57
24.624,72.5
24.629333,72.49
24.634667,72.51
24.64,72.5
24.645333,72.41
24.650667,72.4
24.656,72.29
24.661333,72.29
24.666667,72.37
24.672,72.32
24.677333,72.25
24.682667,72.18
24.688,72.08
24.693333,72.06
24.698667,72.03
24.704,71.98
24.709333,71.92
24.714667,71.99
24.72,72.04
24.725333,71.99
24.730667,72.01
24.736,71.95
24.741333,72.04
24.746667,72
24.752,72.14
24.757333,72.07
24.762667,72.07
24.768,72.01
24.773333,72.03
24.778667,72.09
24.784,72.03
24.789333,72.12
24.794667,72.23
24.8,72.24
24.805333,72.13
24.810667,72.07
24.816,72.03
24.821333,71.98
24.826667,72.05
24.832,72.04
24.837333,72.02
24.842667,71.98
24.848,71.89
24.853333,71.84
24.858667,71.81
24.864,71.82
24.869333,71.77
24.874667,71.79
24.88,71.72
24.885333,71.71
24.890667,71.66
24.896,71.58
24.901333,71.53
24.906667,71.53
24.912,71.59
24.917333,71.48
24.922667,71.54
24.928,71.53
24.933333,71.44
24.938667,71.32
24.944,71.32
24.949333,71.25
24.954667,71.18
24.96,71.16
24.965333,71.29
24.970667,71.31
24.976,71.27
24.981333,71.21
24.986667,71.18
24.992,71.2
24.997333,71.13
25.002667,71.18
25.008,71.13
25.013333,71.17
25.018667,71.09
25.024,71.16
25.029333,71.17
25.034667,71.19
25.04,71.08
25.045333,71.1
25.050667,71.13
25.056,71.16
25.061333,71.33
25.066667,71.32
25.072,71.27
25.077333,71.16
25.082667,71.1
25.088,71.12
25.093333,71.18
25.098667,71.15
25.104,71.1
25.109333,71.11
25.114667,71.11
25.12,71.23
25.125333,71.22
25.130667,71.25
25.136,71.21
25.141333,71.28
25.146667,71.21
25.152,71.27
25.157333,71.24
25.162667,71.21
25.168,71.25
25.173333,71.23
25.178667,71.18
25.184,71.25
25.189333,71.18
25.194667,71.15
25.2,71.06
25.205333,71
25.210667,71.06
25.216,71.1
25.221333,71.06
25.226667,71.07
25.232,71.11
25.237333,71.11
25.242667,71.11
25.248,71.13
25.253333,71.15
25.258667,71.07
25.264,71.08
25.269333,71.01
25.274667,70.99
25.28,71.05
25.285333,70.96
25.290667,70.92
25.296,70.9
25.301333,70.86
25.306667,70.8
25.312,70.73
25.317333,70.76
25.322667,70.71
25.328,70.74
25.333333,70.78
25.338667,70.71
25.344,70.66
25.349333,70.67
25.354667,70.68
25.36,70.68
25.365333,70.73
25.370667,70.77
25.376,70.72
25.381333,70.72
25.386667,70.69
25.392,70.59
25.397333,70.55
25.402667,70.56
25.408,70.52
25.413333,70.49
25.418667,70.46
25.424,70.35
25.429333,70.39
25.434667,70.38
25.44,70.36
25.445333,70.37
25.450667,70.54
25.456,70.48
25.461333,70.56
25.466667,70.59
25.472,70.55
25.477333,70.54
25.482667,70.5
25.488,70.69
25.493333,70.7
25.498667,70.63
25.504,70.63
25.509333,70.81
25.514667,70.76
25.52,70.68
25.525333,70.67
25.530667,70.68
25.536,70.76
25.541333,70.71
25.546667,70.75
25.552,70.69
25.557333,70.67
25.562667,70.61
25.568,70.61
25.573333,70.72
25.578667,70.7
25.584,70.67
25.589333,70.66
25.594667,70.72
25.6,70.69
25.605333,70.74
25.610667,70.78
25.616,70.76
25.621333,70.76
25.626667,70.73
25.632,70.76
25.637333,70.77
25.642667,70.69
25.648,70.71
25.653333,70.73
25.658667,70.73
25.664,70.63
25.669333,70.62
25.674667,70.67
25.68,70.67
25.685333,70.68
25.690667,70.69
25.696,70.66
25.701333,70.58
25.706667,70.56
25.712,70.61
25.717333,70.68
25.722667,70.68
25.728,70.58
25.733333,70.51
25.738667,70.43
25.744,70.37
25.749333,70.36
25.754667,70.38
25.76,70.38
25.765333,70.34
25.770667,70.32
25.776,70.31
25.781333,70.29
25.786667,70.26
25.792,70.21
25.797333,70.29
25.802667,70.34
25.808,70.29
25.813333,70.23
25.818667,70.27
25.824,70.29
25.829333,70.22
25.834667,70.16
25.84,70.17
25.845333,70.18
25.850667,70.17
25.856,70.22
25.861333,70.36
25.866667,70.3
25.872,70.2
25.877333,70.13
25.882667,70.18
25.888,70.14
25.893333,70.31
25.898667,70.31
25.904,70.33
25.909333,70.32
25.914667,70.36
25.92,70.4
25.925333,70.43
25.930667,70.41
25.936,70.39
25.941333,70.37
25.946667,70.39
25.952,70.36
25.957333,70.49
25.962667,70.57
25.968,70.55
25.973333,70.56
25.978667,70.61
25.984,70.59
25.989333,70.53
25.994667,70.47
26,70.46
26.005333,70.38
26.010667,70.37
26.016,70.39
26.021333,70.39
26.026667,70.53
26.032,70.51
26.037333,70.52
26.042667,70.48
26.048,70.46
26.053333,70.5
26.058667,70.46
26.064,70.51
26.069333,70.57
26.074667,70.66
26.08,70.64
26.085333,70.63
26.090667,70.6
26.096,70.53
26.101333,70.46
26.106667,70.41
26.112,70.32
26.117333,70.22
26.122667,70.18
26.128,70.14
26.133333,70.25
26.138667,70.32
26.144,70.24
26.149333,70.25
26.154667,70.39
26.16,70.38
26.165333,70.37
26.170667,70.36
26.176,70.36
26.181333,70.34
26.186667,70.36
26.192,70.32
26.197333,70.33
26.202667,70.38
26.208,70.46
26.213333,70.49
26.218667,70.51
26.224,70.57
26.229333,70.49
26.234667,70.5
26.24,70.46
26.245333,70.49
26.250667,70.43
26.256,70.5
26.261333,70.6
26.266667,70.66
26.272,70.66
26.277333,70.58
26.282667,70.53
26.288,70.52
26.293333,70.54
26.298667,70.62
26.304,70.56
26.309333,70.51
26.314667,70.52
26.32,70.48
26.325333,70.66
26.330667,70.72
26.336,70.71
26.341333,70.66
26.346667,70.68
26.352,70.68
26.357333,70.64
26.362667,70.78
26.368,70.71
26.373333,70.73
26.378667,70.76
26.384,70.78
26.389333,70.78
26.394667,70.75
26.4,70.71
26.405333,70.71
26.410667,70.63
26.416,70.66
26.421333,70.67
26.426667,70.68
26.432,70.73
26.437333,70.76
26.442667,70.93
26.448,70.91
26.453333,70.99
26.458667,70.99
26.464,70.93
26.469333,70.91
26.474667,70.9
26.48,70.91
26.485333,70.86
26.490667,70.79
26.496,70.83
26.501333,70.87
26.506667,70.92
26.512,70.86
26.517333,70.94
26.522667,70.96
26.528,70.89
26.533333,70.96
26.538667,70.94
26.544,70.95
26.549333,70.88
26.554667,70.85
26.56,70.91
26.565333,70.9
26.570667,70.89
26.576,70.95
26.581333,70.97
26.586667,71.01
26.592,70.99
26.597333,71.1
26.602667,71.09
26.608,71.07
26.613333,71.16
26.618667,71.23
26.624,71.29
26.629333,71.3
26.634667,71.3
26.64,71.3
26.645333,71.34
26.650667,71.31
26.656,71.36
26.661333,71.31
26.666667,71.3
26.672,71.28
26.677333,71.25
26.682667,71.33
26.688,71.41
26.693333,71.44
26.698667,71.43
26.704,71.47
26.709333,71.47
26.714667,71.47
26.72,71.6
26.725333,71.57
26.730667,71.77
26.736,71.85
26.741333,71.79
26.746667,71.87
26.752,71.96
26.757333,72.06
26.762667,72.18
26.768,72.15
26.773333,72.09
26.778667,72.13
26.784,72.07
26.789333,72.3
26.794667,72.34
26.8,72.43
26.805333,72.59
26.810667,72.64
26.816,72.75
26.821333,72.68
26.826667,72.87
26.832,72.95
26.837333,73.15
26.842667,73.13
26.848,73.21
26.853333,73.28
26.858667,73.34
26.864,73.29
26.869333,73.24
26.874667,73.19
26.88,73.11
26.885333,73.12
26.890667,73.13
26.896,73.17
26.901333,73.18
26.906667,73.15
26.912,73.15
26.917333,73.17
26.922667,73.11
26.928,73.09
26.933333,73.02
26.938667,73.04
26.944,73.19
26.949333,73.27
26.954667,73.25
26.96,73.34
26.965333,73.33
26.970667,73.56
26.976,73.62
26.981333,73.61
26.986667,73.64
26.992,73.6
26.997333,73.63
27.002667,73.54
27.008,73.54
27.013333,73.45
27.018667,73.42
27.024,73.4
27.029333,73.47
27.034667,73.44
27.04,73.43
27.045333,73.44
27.050667,73.46
27.056,73.44
27.061333,73.46
27.066667,73.42
27.072,73.51
27.077333,73.51
27.082667,73.46
27.088,73.51
27.093333,73.57
27.098667,73.61
27.104,73.57
27.109333,73.64
27.114667,73.55
27.12,73.51
27.125333,73.52
27.130667,73.62
27.136,73.68
27.141333,73.83
27.146667,73.74
27.152,73.84
27.157333,73.8
27.162667,73.72
27.168,73.79
27.173333,73.88
27.178667,73.96
27.184,73.94
27.189333,74.03
27.194667,73.98
27.2,74
27.205333,74.06
27.210667,73.94
27.216,74.02
27.221333,74.08
27.226667,74.07
27.232,74.15
27.237333,74.16
27.242667,74.2
27.248,74.12
27.253333,74.1
27.258667,74.1
27.264,74.23
27.269333,74.27
27.274667,74.31
27.28,74.58
27.285333,74.71
27.290667,74.76
27.296,74.79
27.301333,74.75
27.306667,74.69
27.312,74.72
27.317333,74.66
27.322667,74.67
27.328,74.77
27.333333,74.86
27.338667,74.94
27.344,75.05
27.349333,75.13
27.354667,75.14
27.36,75.12
27.365333,75.13
27.370667,75.08
27.376,75.13
27.381333,75.09
27.386667,74.97
27.392,75.02
27.397333,74.96
27.402667,74.99
27.408,75.05
27.413333,75.19
27.418667,75.16
27.424,75.05
27.429333,75.01
27.434667,75
27.44,75.01
27.445333,74.99
27.450667,75
27.456,75
27.461333,75.02
27.466667,74.94
27.472,74.9
27.477333,74.83
27.482667,74.79
27.488,74.8
27.493333,74.87
27.498667,74.83
27.504,74.87
27.509333,74.85
27.514667,75.08
27.52,75.18
27.525333,75.25
27.530667,75.3
27.536,75.22
27.541333,75.27
27.546667,75.16
27.552,75.11
27.557333,75.2
27.562667,75.17
27.568,75.24
27.573333,75.18
27.578667,75.25
27.584,75.24
27.589333,75.19
27.594667,75.14
27.6,75.17
27.605333,75.14
27.610667,75.18
27.616,75.21
27.621333,75.39
27.626667,75.32
27.632,75.28
27.637333,75.28
27.642667,75.23
27.648,75.52
27.653333,75.53
27.658667,75.58
27.664,75.58
27.669333,75.59
27.674667,75.58
27.68,75.52
27.685333,75.5
27.690667,75.49
27.696,75.56
27.701333,75.57
27.706667,75.57
27.712,75.64
27.717333,75.62
27.722667,75.61
27.728,75.51
27.733333,75.67
27.738667,75.63
27.744,75.63
27.749333,75.65
27.754667,75.8
27.76,75.79
27.765333,75.72
27.770667,75.74
27.776,75.77
27.781333,75.77
27.786667,75.72
27.792,75.69
27.797333,75.64
27.802667,75.62
27.808,75.69
27.813333,75.67
27.818667,75.63
27.824,75.59
27.829333,75.67
27.834667,75.77
27.84,75.75
27.845333,75.78
27.850667,75.71
27.856,75.67
27.861333,75.59
27.866667,75.57
27.872,75.7
27.877333,75.79
27.882667,75.79
27.888,75.82
27.893333,75.8
27.898667,75.74
27.904,75.8
27.909333,75.77
27.914667,75.71
27.92,75.76
27.925333,75.74
27.930667,75.7
27.936,75.66
27.941333,75.6
27.946667,75.52
27.952,75.4
27.957333,75.37
27.962667,75.34
27.968,75.37
27.973333,75.36
27.978667,75.27
27.984,75.22
27.989333,75.31
27.994667,75.3
28,75.28
28.005333,75.27
28.010667,75.22
28.016,75.16
28.021333,75.12
28.026667,75.08
28.032,75.04
28.037333,74.95
28.042667,74.85
28.048,74.81
28.053333,74.81
28.058667,74.83
28.064,74.74
28.069333,74.73
28.074667,74.71
28.08,74.61
28.085333,74.5
28.090667,74.44
28.096,74.37
28.101333,74.33
28.106667,74.39
28.112,74.43
28.117333,74.37
28.122667,74.34
28.128,74.25
28.133333,74.15
28.138667,74.14
28.144,74.25
28.149333,74.16
28.154667,74.06
28.16,74.04
28.165333,73.96
28.170667,74.03
28.176,74.02
28.181333,74.16
28.186667,74.18
28.192,74.08
28.197333,73.98
28.202667,74.01
28.208,73.98
28.213333,73.92
28.218667,73.84
28.224,73.82
28.229333,73.85
28.234667,73.96
28.24,73.96
28.245333,73.89
28.250667,73.89
28.256,73.8
28.261333,73.79
28.266667,73.84
28.272,74
28.277333,73.99
28.282667,74
28.288,74.1
28.293333,74.11
28.298667,74.1
28.304,74.14
28.309333,74.11
28.314667,74.26
28.32,74.25
28.325333,74.21
28.330667,74.23
28.336,74.13
28.341333,74.13
28.346667,74.14
28.352,74.1
28.357333,74.11
28.362667,74.07
28.368,74.12
28.373333,74.11
28.378667,74.14
28.384,74.25
28.389333,74.24
28.394667,74.17
28.4,74.08
28.405333,74.04
28.410667,73.92
28.416,73.85
28.421333,73.84
28.426667,73.79
28.432,73.77
28.437333,73.68
28.442667,73.67
28.448,73.65
28.453333,73.58
28.458667,73.53
28.464,73.49
28.469333,73.47
28.474667,73.47
28.48,73.51
28.485333,73.45
28.490667,73.37
28.496,73.3
28.501333,73.26
28.506667,73.15
28.512,73.13
28.517333,73.08
28.522667,73.08
28.528,73.16
28.533333,73.05
28.538667,73.08
28.544,73.11
28.549333,73.05
28.554667,72.93
28.56,72.95
28.565333,72.92
28.570667,72.9
28.576,72.9
28.581333,72.96
28.586667,72.97
28.592,72.95
28.597333,72.92
28.602667,72.95
28.608,73.03
28.613333,72.95
28.618667,72.95
28.624,72.9
28.629333,72.88
28.634667,73.08
28.64,73.11
28.645333,73.09
28.650667,72.97
28.656,72.94
28.661333,72.93
28.666667,72.92
28.672,72.82
28.677333,72.79
28.682667,72.74
28.688,72.79
28.693333,72.81
28.698667,72.85
28.704,72.84
28.709333,72.81
28.714667,72.86
28.72,72.87
28.725333,72.79
28.730667,72.7
28.736,72.74
28.741333,72.71
28.746667,72.81
28.752,72.83
28.757333,72.76
28.762667,72.69
28.768,72.71
28.773333,72.72
28.778667,72.63
28.784,72.66
28.789333,72.69
28.794667,72.66
28.8,72.67
28.805333,72.73
28.810667,72.69
28.816,72.65
28.821333,72.65
28.826667,72.61
28.832,72.58
28.837333,72.51
28.842667,72.55
28.848,72.48
28.853333,72.44
28.858667,72.4
28.864,72.36
28.869333,72.35
28.874667,72.33
28.88,72.3
28.885333,72.36
28.890667,72.37
28.896,72.33
28.901333,72.33
28.906667,72.29
28.912,72.21
28.917333,72.2
28.922667,72.14
28.928,72.1
28.933333,72.1
28.938667,72.08
28.944,72.06
28.949333,72.04
28.954667,72.05
28.96,71.98
28.965333,71.98
28.970667,71.98
28.976,71.92
28.981333,71.96
28.986667,71.87
28.992,71.9
28.997333,71.86
29.002667,71.84
29.008,71.92
29.013333,72.13
29.018667,72.14
29.024,72.39
29.029333,72.39
29.034667,72.49
29.04,72.43
29.045333,72.39
29.050667,72.36
29.056,72.41
29.061333,72.41
29.066667,72.33
29.072,72.39
29.077333,72.36
29.082667,72.29
29.088,72.36
29.093333,72.32
29.098667,72.3
29.104,72.34
29.109333,72.37
29.114667,72.49
29.12,72.41
29.125333,72.37
29.130667,72.39
29.136,72.45
29.141333,72.53
29.146667,72.49
29.152,72.39
29.157333,72.33
29.162667,72.33
29.168,72.35
29.173333,72.41
29.178667,72.4
29.184,72.44
29.189333,72.4
29.194667,72.39
29.2,72.39
29.205333,72.37
29.210667,72.39
29.216,72.39
29.221333,72.42
29.226667,72.46
29.232,72.56
29.237333,72.49
29.242667,72.44
29.248,72.38
29.253333,72.31
29.258667,72.34
29.264,72.35
29.269333,72.31
29.274667,72.35
29.28,72.34
29.285333,72.37
29.290667,72.29
29.296,72.36
29.301333,72.24
29.306667,72.32
29.312,72.34
29.317333,72.25
29.322667,72.16
29.328,72.19
29.333333,72.18
29.338667,72.18
29.344,72.29
29.349333,72.24
29.354667,72.4
29.36,72.45
29.365333,72.46
29.370667,72.63
29.376,72.81
29.381333,72.88
29.386667,73.04
29.392,73.12
29.397333,73.53
29.402667,73.6
29.408,73.74
29.413333,73.8
29.418667,73.84
29.424,73.87
29.429333,73.85
29.434667,73.9
29.44,73.78
29.445333,73.67
29.450667,73.58
29.456,73.51
29.461333,73.43
29.466667,73.34
29.472,73.29
29.477333,73.27
29.482667,73.26
29.488,73.23
29.493333,73.27
29.498667,73.35
29.504,73.35
29.509333,73.35
29.514667,73.36
29.52,73.4
29.525333,73.28
29.530667,73.19
29.536,73.22
29.541333,73.25
29.546667,73.2
29.552,73.16
29.557333,73.21
29.562667,73.24
29.568,73.22
29.573333,73.12
29.578667,73.09
29.584,73.02
29.589333,72.98
29.594667,73.07
29.6,73.15
29.605333,73.11
29.610667,73.07
29.616,73.01
29.621333,73.1
29.626667,73.03
29.632,72.97
29.637333,73
29.642667,72.94
29.648,72.98
29.653333,72.92
29.658667,72.89
29.664,73
29.669333,73.06
29.674667,73.07
29.68,73.02
29.685333,72.99
29.690667,72.93
29.696,72.88
29.701333,72.87
29.706667,72.77
29.712,72.8
29.717333,72.81
29.722667,72.74
29.728,72.74
29.733333,72.69
29.738667,72.7
29.744,72.83
29.749333,72.83
29.754667,72.84
29.76,72.85
29.765333,72.88
29.770667,72.89
29.776,73.03
29.781333,73.05
29.786667,73.05
29.792,73.06
29.797333,73.05
29.802667,73.03
29.808,73.07
29.813333,73.1
29.818667,73.15
29.824,73.12
29.829333,73.1
29.834667,73.03
29.84,73.11
29.845333,73.08
29.850667,73.17
29.856,73.19
29.861333,73.16
29.866667,73.11
29.872,73.02
29.877333,73.02
29.882667,72.95
29.888,72.9
29.893333,72.87
29.898667,72.83
29.904,72.78
29.909333,72.72
29.914667,72.76
29.92,72.78
29.925333,72.77
29.930667,72.68
29.936,72.57
29.941333,72.5
29.946667,72.45
29.952,72.6
29.957333,72.56
29.962667,72.5
29.968,72.42
29.973333,72.38
29.978667,72.43
29.984,72.37
29.989333,72.45
29.994667,72.38
30,72.29
30.005333,72.36
30.010667,72.31
30.016,72.24
30.021333,72.24
30.026667,72.3
30.032,72.24
30.037333,72.42
30.042667,72.35
30.048,72.26
30.053333,72.19
30.058667,72.18
30.064,72.15
30.069333,72.13
30.074667,72.37
30.08,72.33
30.085333,72.29
30.090667,72.29
30.096,72.31
30.101333,72.26
30.106667,72.25
30.112,72.22
30.117333,72.11
30.122667,72.06
30.128,72.09
30.133333,72.05
30.138667,72.01
30.144,72
30.149333,71.97
30.154667,71.92
30.16,71.82
30.165333,71.82
30.170667,71.77
30.176,71.79
30.181333,71.73
30.186667,71.68
30.192,71.58
30.197333,71.59
30.202667,71.56
30.208,71.5
30.213333,71.49
30.218667,71.44
30.224,71.4
30.229333,71.34
30.234667,71.36
30.24,71.41
30.245333,71.44
30.250667,71.48
30.256,71.55
30.261333,71.48
30.266667,71.44
30.272,71.4
30.277333,71.39
30.282667,71.39
30.288,71.35
30.293333,71.3
30.298667,71.28
30.304,71.24
30.309333,71.45
30.314667,71.55
30.32,71.47
30.325333,71.54
30.330667,71.51
30.336,71.56
30.341333,71.54
30.346667,71.54
30.352,71.55
30.357333,71.59
30.362667,71.53
30.368,71.67
30.373333,71.62
30.378667,71.65
30.384,71.61
30.389333,71.55
30.394667,71.52
30.4,71.67
30.405333,71.68
30.410667,71.64
30.416,71.67
30.421333,71.77
30.426667,71.87
30.432,71.96
30.437333,72
30.442667,72.24
30.448,72.23
30.453333,72.22
30.458667,72.26
30.464,72.3
30.469333,72.26
30.474667,72.21
30.48,72.23
30.485333,72.2
30.490667,72.24
30.496,72.18
30.501333,72.17
30.506667,72.22
30.512,72.17
30.517333,72.26
30.522667,72.26
30.528,72.26
30.533333,72.25
30.538667,72.22
30.544,72.15
30.549333,72.1
30.554667,72.05
30.56,71.98
30.565333,71.93
30.570667,71.88
30.576,71.84
30.581333,71.85
30.586667,71.83
30.592,71.94
30.597333,71.94
30.602667,72.02
30.608,72.09
30.613333,72.04
30.618667,72.07
30.624,72.05
30.629333,72.15
30.634667,72.12
30.64,72.08
30.645333,72.07
30.650667,72.04
30.656,72.11
30.661333,72.11
30.666667,72.05
30.672,72.06
30.677333,72.06
30.682667,72.06
30.688,72.15
30.693333,72.21
30.698667,72.18
30.704,72.12
30.709333,72.08
30.714667,72.12
30.72,72.03
30.725333,72.15
30.730667,72.19
30.736,72.15
30.741333,72.12
30.746667,72.19
30.752,72.15
30.757333,72.14
30.762667,72.21
30.768,72.13
30.773333,72.04
30.778667,72.09
30.784,72.08
30.789333,72.04
30.794667,72
30.8,71.96
30.805333,71.91
30.810667,71.96
30.816,71.94
30.821333,71.9
30.826667,71.92
30.832,71.87
30.837333,71.78
30.842667,71.75
30.848,71.72
30.853333,71.68
30.858667,71.71
30.864,71.69
30.869333,71.73
30.874667,71.78
30.88,71.79
30.885333,71.73
30.890667,71.78
30.896,71.82
30.901333,71.75
30.906667,71.66
30.912,71.56
30.917333,71.57
30.922667,71.51
30.928,71.59
30.933333,71.58
30.938667,71.68
30.944,71.66
30.949333,71.73
30.954667,71.75
30.96,71.76
30.965333,71.8
30.970667,71.8
30.976,71.84
30.981333,71.93
30.986667,71.92
30.992,71.89
30.997333,71.84
31.002667,71.85
31.008,71.75
31.013333,71.77
31.018667,71.73
31.024,71.69
31.029333,71.71
31.034667,71.69
31.04,71.62
31.045333,71.65
31.050667,71.58
31.056,71.48
31.061333,71.45
31.066667,71.43
31.072,71.59
31.077333,71.56
31.082667,71.61
31.088,71.64
31.093333,71.69
31.098667,71.69
31.104,71.72
31.109333,71.62
31.114667,71.64
31.12,71.6
31.125333,71.52
31.130667,71.64
31.136,71.7
31.141333,71.69
31.146667,71.72
31.152,71.67
31.157333,71.63
31.162667,71.64
31.168,71.69
31.173333,71.65
31.178667,71.62
31.184,71.66
31.189333,71.72
31.194667,71.79
31.2,71.79
31.205333,71.8
31.210667,71.84
31.216,71.79
31.221333,71.81
31.226667,71.84
31.232,71.83
31.237333,71.79
31.242667,71.89
31.248,71.83
31.253333,71.75
31.258667,71.68
31.264,71.7
31.269333,71.66
31.274667,71.66
31.28,71.6
31.285333,71.52
31.290667,71.52
31.296,71.64
31.301333,71.71
31.306667,71.79
31.312,71.77
31.317333,71.82
31.322667,71.9
31.328,72.1
31.333333,72.11
31.338667,72.13
31.344,72.26
31.349333,72.26
31.354667,72.25
31.36,72.21
31.365333,72.15
31.370667,72.2
31.376,72.2
31.381333,72.27
31.386667,72.29
31.392,72.31
31.397333,72.34
31.402667,72.39
31.408,72.45
31.413333,72.42
31.418667,72.41
31.424,72.45
31.429333,72.47
31.434667,72.5
31.44,72.56
31.445333,72.7
31.450667,72.81
31.456,72.81
31.461333,72.8
31.466667,72.96
31.472,73.07
31.477333,73.1
31.482667,73.07
31.488,73.08
31.493333,73.07
31.498667,73
31.504,73.03
31.509333,73.03
31.514667,72.98
31.52,72.97
31.525333,72.93
31.530667,73.01
31.536,72.97
31.541333,72.92
31.546667,72.95
31.552,72.9
31.557333,72.83
31.562667,72.76
31.568,72.75
31.573333,72.7
31.578667,72.68
31.584,72.66
31.589333,72.72
31.594667,72.72
31.6,72.68
31.605333,72.72
31.610667,72.72
31.616,72.83
31.621333,72.81
31.626667,72.83
31.632,72.75
31.637333,72.68
31.642667,72.65
31.648,72.7
31.653333,72.67
31.658667,72.65
31.664,72.67
31.669333,72.66
31.674667,72.59
31.68,72.61
31.685333,72.67
31.690667,72.68
31.696,72.73
31.701333,72.7
31.706667,72.66
31.712,72.73
31.717333,72.82
31.722667,72.85
31.728,72.85
31.733333,72.82
31.738667,72.8
31.744,72.83
31.749333,72.82
31.754667,72.77
31.76,72.75
31.765333,72.72
31.770667,72.73
31.776,72.78
31.781333,72.76
31.786667,72.73
31.792,72.64
31.797333,72.61
31.802667,72.63
31.808,72.63
31.813333,72.63
31.818667,72.63
31.824,72.65
31.829333,72.6
31.834667,72.61
31.84,72.59
31.845333,72.62
31.850667,72.64
31.856,72.62
31.861333,72.65
31.866667,72.63
31.872,72.54
31.877333,72.47
31.882667,72.43
31.888,72.42
31.893333,72.41
31.898667,72.38
31.904,72.43
31.909333,72.43
31.914667,72.5
31.92,72.46
31.925333,72.48
31.930667,72.45
31.936,72.43
31.941333,72.41
31.946667,72.41
31.952,72.4
31.957333,72.34
31.962667,72.32
31.968,72.28
31.973333,72.21
31.978667,72.17
31.984,72.1
31.989333,72.1
31.994667,72.12
32,72.23
32.005333,72.32
32.010667,72.31
32.016,72.4
32.021333,72.38
32.026667,72.47
32.032,72.39
32.037333,72.58
32.042667,72.55
32.048,72.49
32.053333,72.46
32.058667,72.47
32.064,72.45
32.069333,72.42
32.074667,72.42
32.08,72.36
32.085333,72.37
32.090667,72.37
32.096,72.51
32.101333,72.51
32.106667,72.62
32.112,72.6
32.117333,72.54
32.122667,72.52
32.128,72.59
32.133333,72.58
32.138667,72.57
32.144,72.54
32.149333,72.66
32.154667,72.68
32.16,72.61
32.165333,72.62
32.170667,72.71
32.176,72.8
32.181333,72.91
32.186667,72.88
32.192,72.86
32.197333,72.83
32.202667,72.85
32.208,72.83
32.213333,72.77
32.218667,72.84
32.224,72.84
32.229333,72.81
32.234667,72.77
32.24,72.71
32.245333,72.69
32.250667,72.69
32.256,72.72
32.261333,72.71
32.266667,72.7
32.272,72.72
32.277333,72.61
32.282667,72.57
32.288,72.66
32.293333,72.63
32.298667,72.72
32.304,72.73
32.309333,72.72
32.314667,72.73
32.32,72.85
32.325333,72.84
32.330667,72.85
32.336,72.9
32.341333,73.08
32.346667,73.01
32.352,73.01
32.357333,73.04
32.362667,73.05
32.368,72.99
32.373333,73
32.378667,73.03
32.384,73.08
32.389333,73.08
32.394667,72.98
32.4,72.99
32.405333,72.95
32.410667,73.09
32.416,73.11
32.421333,73.12
32.426667,73.18
32.432,73.22
32.437333,73.2
32.442667,73.26
32.448,73.22
32.453333,73.21
32.458667,73.36
32.464,73.5
32.469333,73.59
32.474667,73.66
32.48,73.64
32.485333,73.61
32.490667,73.55
32.496,73.49
32.501333,73.61
32.506667,73.61
32.512,73.59
32.517333,73.53
32.522667,73.61
32.528,73.65
32.533333,73.67
32.538667,73.65
32.544,73.6
32.549333,73.55
32.554667,73.49
32.56,73.49
32.565333,73.5
32.570667,73.52
32.576,73.57
32.581333,73.47
32.586667,73.54
32.592,73.54
32.597333,73.43
32.602667,73.42
32.608,73.38
32.613333,73.4
32.618667,73.38
32.624,73.35
32.629333,73.3
32.634667,73.28
32.64,73.19
32.645333,73.27
32.650667,73.15
32.656,73.1
32.661333,73.09
32.666667,73.01
32.672,72.98
32.677333,73.02
32.682667,72.94
32.688,72.94
32.693333,72.9
32.698667,72.77
32.704,72.74
32.709333,72.72
32.714667,72.69
32.72,72.74
32.725333,72.84
32.730667,72.89
32.736,72.88
32.741333,72.82
32.746667,72.83
32.752,72.79
32.757333,72.83
32.762667,72.81
32.768,72.76
32.773333,72.73
32.778667,72.8
32.784,72.77
32.789333,72.81
32.794667,72.83
32.8,72.79
32.805333,72.76
32.810667,72.8
32.816,72.76
32.821333,72.77
32.826667,72.79
32.832,72.8
32.837333,72.81
32.842667,72.9
32.848,72.85
32.853333,72.93
32.858667,72.85
32.864,72.78
32.869333,72.77
32.874667,72.83
32.88,72.84
32.885333,72.83
32.890667,72.81
32.896,72.82
32.901333,72.76
32.906667,72.76
32.912,72.72
32.917333,72.68
32.922667,72.64
32.928,72.6
32.933333,72.59
32.938667,72.6
32.944,72.58
32.949333,72.6
32.954667,72.63
32.96,72.63
32.965333,72.59
32.970667,72.58
32.976,72.61
32.981333,72.5
32.986667,72.49
32.992,72.48
32.997333,72.4
33.002667,72.51
33.008,72.47
33.013333,72.54
33.018667,72.54
33.024,72.53
33.029333,72.56
33.034667,72.6
33.04,72.52
33.045333,72.49
33.050667,72.5
33.056,72.54
33.061333,72.5
33.066667,72.47
33.072,72.41
33.077333,72.36
33.082667,72.33
33.088,72.36
33.093333,72.4
33.098667,72.29
33.104,72.2
33.109333,72.13
33.114667,72.11
33.12,72.08
33.125333,72.04
33.130667,72
33.136,71.98
33.141333,71.95
33.146667,72.09
33.152,72.19
33.157333,72.16
33.162667,72.19
33.168,72.28
33.173333,72.3
33.178667,72.32
33.184,72.33
33.189333,72.34
33.194667,72.41
33.2,72.36
33.205333,72.31
33.210667,72.28
33.216,72.32
33.221333,72.41
33.226667,72.37
33.232,72.33
33.237333,72.26
33.242667,72.23
33.248,72.16
33.253333,72.11
33.258667,72.24
33.264,72.28
33.269333,72.21
33.274667,72.14
33.28,72.16
33.285333,72.09
33.290667,72.14
33.296,72.08
33.301333,72.18
33.306667,72.18
33.312,72.09
33.317333,72.09
33.322667,72.07
33.328,72.09
33.333333,72.08
33.338667,72.12
33.344,72.15
33.349333,72.11
33.354667,72.16
33.36,72.13
33.365333,72.24
33.370667,72.27
33.376,72.38
33.381333,72.34
33.386667,72.47
33.392,72.53
33.397333,72.53
33.402667,72.6
33.408,72.68
33.413333,72.78
33.418667,72.88
33.424,72.9
33.429333,72.91
33.434667,72.85
33.44,73.01
33.445333,72.97
33.450667,72.94
33.456,73.01
33.461333,72.98
33.466667,72.96
33.472,72.93
33.477333,72.84
33.482667,72.8
33.488,72.79
33.493333,72.72
33.498667,72.7
33.504,72.72
33.509333,72.73
33.514667,72.77
33.52,72.78
33.525333,72.74
33.530667,72.72
33.536,72.76
33.541333,72.77
33.546667,72.71
33.552,72.7
33.557333,72.8
33.562667,72.78
33.568,72.88
33.573333,72.89
33.578667,72.9
33.584,72.96
33.589333,72.92
33.594667,73.13
33.6,73.14
33.605333,73.19
33.610667,73.26
33.616,73.17
33.621333,73.23
33.626667,73.23
33.632,73.15
33.637333,73.15
33.642667,73.1
33.648,73.05
33.653333,73.06
33.658667,73
33.664,73.02
33.669333,72.95
33.674667,72.9
33.68,72.8
33.685333,72.81
33.690667,72.77
33.696,72.71
33.701333,72.78
33.706667,72.76
33.712,72.66
33.717333,72.67
33.722667,72.69
33.728,72.66
33.733333,72.66
33.738667,72.69
33.744,72.82
