Time file:	R:\UCL_SSID\SSID_DATABASE\SSID_London\OFF_CamdenTown1_FULL_190502\OFF_CamdenTown1_BIN_190502\CamdenTown1_HDF\13-43_12.hdf
Mark:		13-43_12 (0.00 - 31.79 s)
Filter:	
Analysis:	Level vs. Time (Fast; A)
Statistic:	Max[13-43_12.{Left,Right}]
Kind:	Level
Abscissa 1:	Time,s
Channel 1:	Max {Pa},Sound Pressure,dB(SPL),L(A)=71.53; L5(A)=76.82; L10(A)=75.75; L50(A)=69.66; L90(A)=64.10; L95(A)=62.97 dB(SPL); Min(A)=60.98 dB(SPL) @8.31 s; Max(A)=78.23 dB(SPL) @27.9 s
Comment:
<User Comment>
CT122
<>
SQobold SD recording
S/N 33020299 Name U London FW 1.5/3
Ch1: 104 dB(SPL) ICP
Ch2: 104 dB(SPL) ICP
User Information:
SSID Field Binaural Basic/Comments = People talking, traffic, cars passing, 
SSID Field Binaural Basic/Delete/scratch? = False
SSID Field Binaural Basic/End Buffer = 
SSID Field Binaural Basic/GroupID = CT122
SSID Field Binaural Basic/No edit needed = True
SSID Field Binaural Basic/SessionID = CamdenTown1
SSID Field Binaural Basic/Start Buffer = 


0,61.99
0.00533333,61.81
0.0106667,61.74
0.016,61.8
0.0213333,61.81
0.0266667,61.85
0.032,61.83
0.0373333,61.8
0.0426667,61.79
0.048,61.81
0.0533333,61.77
0.0586667,61.84
0.064,62.03
0.0693333,62.19
0.0746667,62.63
0.08,63.48
0.0853333,64.35
0.0906667,64.67
0.096,66.05
0.101333,66.95
0.106667,67.84
0.112,68.96
0.117333,70.31
0.122667,70.85
0.128,71.01
0.133333,71.28
0.138667,71.41
0.144,71.44
0.149333,71.45
0.154667,71.5
0.16,71.57
0.165333,71.57
0.170667,71.52
0.176,71.55
0.181333,71.59
0.186667,71.53
0.192,71.47
0.197333,71.41
0.202667,71.34
0.208,71.24
0.213333,71.12
0.218667,71.02
0.224,70.92
0.229333,70.77
0.234667,70.65
0.24,70.52
0.245333,70.36
0.250667,70.21
0.256,70.06
0.261333,69.91
0.266667,69.78
0.272,69.63
0.277333,69.49
0.282667,69.33
0.288,69.19
0.293333,69.03
0.298667,68.91
0.304,68.75
0.309333,68.62
0.314667,68.48
0.32,68.34
0.325333,68.22
0.330667,68.12
0.336,68.14
0.341333,68.16
0.346667,68.19
0.352,68.31
0.357333,68.36
0.362667,68.29
0.368,68.24
0.373333,68.29
0.378667,68.48
0.384,68.71
0.389333,68.85
0.394667,68.97
0.4,69.17
0.405333,69.52
0.410667,69.84
0.416,70.17
0.421333,70.37
0.426667,70.45
0.432,70.62
0.437333,70.78
0.442667,71.12
0.448,71.61
0.453333,72.37
0.458667,72.64
0.464,72.82
0.469333,72.77
0.474667,72.67
0.48,72.56
0.485333,72.44
0.490667,72.33
0.496,72.21
0.501333,72.1
0.506667,71.97
0.512,71.81
0.517333,71.65
0.522667,71.48
0.528,71.31
0.533333,71.14
0.538667,70.97
0.544,70.8
0.549333,70.64
0.554667,70.47
0.56,70.31
0.565333,70.16
0.570667,70
0.576,69.83
0.581333,69.66
0.586667,69.5
0.592,69.33
0.597333,69.17
0.602667,69.05
0.608,68.89
0.613333,68.74
0.618667,68.59
0.624,68.44
0.629333,68.29
0.634667,68.14
0.64,67.99
0.645333,67.84
0.650667,67.79
0.656,67.74
0.661333,67.73
0.666667,67.68
0.672,67.62
0.677333,67.55
0.682667,67.46
0.688,67.39
0.693333,67.34
0.698667,67.27
0.704,67.4
0.709333,67.54
0.714667,67.55
0.72,67.56
0.725333,67.63
0.730667,67.75
0.736,68.03
0.741333,68.07
0.746667,68.1
0.752,68.17
0.757333,68.29
0.762667,68.3
0.768,68.36
0.773333,68.61
0.778667,68.69
0.784,68.91
0.789333,69.09
0.794667,69.43
0.8,69.81
0.805333,70.22
0.810667,70.39
0.816,70.56
0.821333,70.49
0.826667,70.38
0.832,70.33
0.837333,70.27
0.842667,70.2
0.848,70.1
0.853333,70
0.858667,69.85
0.864,69.71
0.869333,69.61
0.874667,69.48
0.88,69.4
0.885333,69.33
0.890667,69.3
0.896,69.33
0.901333,69.72
0.906667,69.91
0.912,70.29
0.917333,70.68
0.922667,70.97
0.928,71.26
0.933333,71.52
0.938667,71.61
0.944,71.94
0.949333,72.26
0.954667,72.68
0.96,72.93
0.965333,73.16
0.970667,73.24
0.976,73.33
0.981333,73.37
0.986667,73.37
0.992,73.33
0.997333,73.36
1.002667,73.26
1.008,73.31
1.013333,73.3
1.018667,73.22
1.024,73.15
1.029333,73.06
1.034667,72.99
1.04,72.89
1.045333,72.76
1.050667,72.6
1.056,72.44
1.061333,72.28
1.066667,72.13
1.072,71.97
1.077333,71.82
1.082667,71.65
1.088,71.5
1.093333,71.33
1.098667,71.16
1.104,70.99
1.109333,70.83
1.114667,70.67
1.12,70.52
1.125333,70.37
1.130667,70.21
1.136,70.07
1.141333,69.9
1.146667,69.76
1.152,69.61
1.157333,69.48
1.162667,69.35
1.168,69.23
1.173333,69.06
1.178667,68.9
1.184,68.75
1.189333,68.59
1.194667,68.44
1.2,68.34
1.205333,68.2
1.210667,68.06
1.216,67.91
1.221333,67.77
1.226667,67.61
1.232,67.47
1.237333,67.33
1.242667,67.22
1.248,67.1
1.253333,66.99
1.258667,66.9
1.264,67.04
1.269333,67.33
1.274667,68.07
1.28,68.78
1.285333,69.48
1.290667,70.09
1.296,70.2
1.301333,70.27
1.306667,70.29
1.312,70.37
1.317333,70.4
1.322667,70.44
1.328,70.54
1.333333,70.62
1.338667,70.8
1.344,70.81
1.349333,70.69
1.354667,70.58
1.36,70.46
1.365333,70.38
1.370667,70.3
1.376,70.23
1.381333,70.14
1.386667,70.07
1.392,70.08
1.397333,70.06
1.402667,70
1.408,70.13
1.413333,70.22
1.418667,70.31
1.424,70.5
1.429333,70.71
1.434667,70.9
1.44,71.13
1.445333,71.23
1.450667,71.42
1.456,71.6
1.461333,71.73
1.466667,71.83
1.472,71.91
1.477333,71.98
1.482667,72.07
1.488,72.05
1.493333,72.06
1.498667,72.16
1.504,72.2
1.509333,72.27
1.514667,72.32
1.52,72.35
1.525333,72.37
1.530667,72.41
1.536,72.36
1.541333,72.28
1.546667,72.26
1.552,72.39
1.557333,72.51
1.562667,72.53
1.568,72.58
1.573333,72.61
1.578667,72.55
1.584,72.46
1.589333,72.46
1.594667,72.48
1.6,72.4
1.605333,72.44
1.610667,72.31
1.616,72.24
1.621333,72.18
1.626667,72.11
1.632,72.01
1.637333,71.93
1.642667,71.82
1.648,71.7
1.653333,71.67
1.658667,71.57
1.664,71.44
1.669333,71.44
1.674667,71.52
1.68,71.49
1.685333,71.4
1.690667,71.36
1.696,71.43
1.701333,71.56
1.706667,71.7
1.712,71.86
1.717333,72.01
1.722667,72.27
1.728,72.74
1.733333,72.87
1.738667,73.02
1.744,72.96
1.749333,73.04
1.754667,73.04
1.76,72.98
1.765333,72.93
1.770667,72.87
1.776,72.76
1.781333,72.69
1.786667,72.64
1.792,72.52
1.797333,72.63
1.802667,72.53
1.808,72.53
1.813333,72.47
1.818667,72.62
1.824,72.62
1.829333,72.53
1.834667,72.7
1.84,72.61
1.845333,72.52
1.850667,72.51
1.856,72.47
1.861333,72.39
1.866667,72.38
1.872,72.35
1.877333,72.28
1.882667,72.23
1.888,72.22
1.893333,72.27
1.898667,72.37
1.904,72.48
1.909333,72.62
1.914667,72.81
1.92,73.1
1.925333,73.3
1.930667,73.54
1.936,73.78
1.941333,73.95
1.946667,74.03
1.952,74.21
1.957333,74.29
1.962667,74.37
1.968,74.53
1.973333,74.55
1.978667,74.63
1.984,74.71
1.989333,74.76
1.994667,74.81
2,74.81
2.005333,74.81
2.010667,74.78
2.016,74.88
2.021333,74.91
2.026667,74.99
2.032,75.26
2.037333,75.4
2.042667,75.35
2.048,75.18
2.053333,75.04
2.058667,74.87
2.064,74.74
2.069333,74.57
2.074667,74.41
2.08,74.24
2.085333,74.09
2.090667,73.93
2.096,73.77
2.101333,73.61
2.106667,73.44
2.112,73.28
2.117333,73.11
2.122667,72.96
2.128,72.83
2.133333,72.68
2.138667,72.52
2.144,72.36
2.149333,72.2
2.154667,72.04
2.16,71.88
2.165333,71.72
2.170667,71.56
2.176,71.39
2.181333,71.23
2.186667,71.08
2.192,70.91
2.197333,70.75
2.202667,70.58
2.208,70.42
2.213333,70.25
2.218667,70.11
2.224,69.97
2.229333,69.85
2.234667,69.74
2.24,69.66
2.245333,69.54
2.250667,69.54
2.256,69.47
2.261333,69.45
2.266667,69.62
2.272,69.87
2.277333,70.09
2.282667,70.25
2.288,70.23
2.293333,70.1
2.298667,69.99
2.304,69.86
2.309333,69.75
2.314667,69.72
2.32,69.63
2.325333,69.52
2.330667,69.54
2.336,69.65
2.341333,69.76
2.346667,69.71
2.352,69.78
2.357333,69.76
2.362667,69.82
2.368,69.85
2.373333,69.84
2.378667,69.87
2.384,69.9
2.389333,69.95
2.394667,69.9
2.4,69.95
2.405333,70
2.410667,70.04
2.416,70.06
2.421333,70.18
2.426667,70.25
2.432,70.27
2.437333,70.38
2.442667,70.35
2.448,70.42
2.453333,70.4
2.458667,70.37
2.464,70.28
2.469333,70.23
2.474667,70.23
2.48,70.33
2.485333,70.42
2.490667,70.32
2.496,70.35
2.501333,70.42
2.506667,70.36
2.512,70.3
2.517333,70.17
2.522667,70.16
2.528,70.27
2.533333,70.35
2.538667,70.45
2.544,70.45
2.549333,70.44
2.554667,70.33
2.56,70.31
2.565333,70.24
2.570667,70.16
2.576,70.17
2.581333,70.12
2.586667,70.22
2.592,70.37
2.597333,70.34
2.602667,70.57
2.608,70.75
2.613333,70.79
2.618667,70.78
2.624,70.78
2.629333,70.75
2.634667,70.7
2.64,70.6
2.645333,70.56
2.650667,70.52
2.656,70.45
2.661333,70.38
2.666667,70.33
2.672,70.2
2.677333,70.16
2.682667,70.03
2.688,69.93
2.693333,69.84
2.698667,69.71
2.704,69.57
2.709333,69.43
2.714667,69.27
2.72,69.14
2.725333,69.01
2.730667,68.89
2.736,68.74
2.741333,68.59
2.746667,68.45
2.752,68.3
2.757333,68.16
2.762667,68.11
2.768,68.12
2.773333,68.11
2.778667,68.08
2.784,68.01
2.789333,67.97
2.794667,67.91
2.8,67.83
2.805333,67.71
2.810667,67.76
2.816,67.71
2.821333,67.83
2.826667,67.86
2.832,67.97
2.837333,67.87
2.842667,67.78
2.848,67.72
2.853333,67.74
2.858667,67.79
2.864,67.8
2.869333,67.81
2.874667,67.75
2.88,67.77
2.885333,67.66
2.890667,67.72
2.896,67.61
2.901333,67.55
2.906667,67.46
2.912,67.49
2.917333,67.46
2.922667,67.6
2.928,67.75
2.933333,67.67
2.938667,67.66
2.944,67.69
2.949333,67.62
2.954667,67.55
2.96,67.41
2.965333,67.27
2.970667,67.11
2.976,66.95
2.981333,66.86
2.986667,66.75
2.992,66.61
2.997333,66.49
3.002667,66.43
3.008,66.4
3.013333,66.61
3.018667,66.67
3.024,67.36
3.029333,67.99
3.034667,68.69
3.04,69.12
3.045333,69.38
3.050667,69.53
3.056,69.65
3.061333,70.05
3.066667,70.36
3.072,70.8
3.077333,71.72
3.082667,72.15
3.088,72.62
3.093333,72.66
3.098667,72.65
3.104,72.56
3.109333,72.43
3.114667,72.29
3.12,72.15
3.125333,72.02
3.130667,71.91
3.136,71.78
3.141333,71.65
3.146667,71.52
3.152,71.37
3.157333,71.2
3.162667,71.04
3.168,70.87
3.173333,70.72
3.178667,70.55
3.184,70.39
3.189333,70.24
3.194667,70.08
3.2,69.93
3.205333,69.79
3.210667,69.62
3.216,69.47
3.221333,69.32
3.226667,69.15
3.232,68.99
3.237333,68.88
3.242667,68.74
3.248,68.66
3.253333,68.75
3.258667,68.99
3.264,69.72
3.269333,70.53
3.274667,71.14
3.28,71.74
3.285333,72.22
3.290667,72.55
3.296,72.86
3.301333,72.99
3.306667,73.11
3.312,73.28
3.317333,73.35
3.322667,73.31
3.328,73.3
3.333333,73.38
3.338667,73.43
3.344,73.49
3.349333,73.57
3.354667,73.66
3.36,73.74
3.365333,73.81
3.370667,73.85
3.376,73.91
3.381333,73.93
3.386667,74.02
3.392,74.17
3.397333,74.2
3.402667,74.19
3.408,74.29
3.413333,74.43
3.418667,74.52
3.424,74.6
3.429333,74.74
3.434667,74.93
3.44,75.09
3.445333,75.34
3.450667,75.64
3.456,75.94
3.461333,76.25
3.466667,76.5
3.472,76.78
3.477333,76.99
3.482667,77.17
3.488,77.27
3.493333,77.28
3.498667,77.16
3.504,77.05
3.509333,76.94
3.514667,76.84
3.52,76.69
3.525333,76.59
3.530667,76.47
3.536,76.41
3.541333,76.44
3.546667,76.3
3.552,76.22
3.557333,76.15
3.562667,76.03
3.568,75.97
3.573333,75.99
3.578667,76.12
3.584,76.34
3.589333,76.65
3.594667,76.95
3.6,77.15
3.605333,77.13
3.610667,77
3.616,76.83
3.621333,76.65
3.626667,76.47
3.632,76.29
3.637333,76.11
3.642667,75.93
3.648,75.75
3.653333,75.57
3.658667,75.39
3.664,75.21
3.669333,75.03
3.674667,74.85
3.68,74.67
3.685333,74.49
3.690667,74.32
3.696,74.15
3.701333,73.98
3.706667,73.83
3.712,73.7
3.717333,73.53
3.722667,73.36
3.728,73.19
3.733333,73.02
3.738667,72.86
3.744,72.68
3.749333,72.51
3.754667,72.34
3.76,72.17
3.765333,72
3.770667,71.83
3.776,71.66
3.781333,71.49
3.786667,71.31
3.792,71.14
3.797333,70.97
3.802667,70.8
3.808,70.63
3.813333,70.46
3.818667,70.29
3.824,70.12
3.829333,69.97
3.834667,69.81
3.84,69.66
3.845333,69.52
3.850667,69.38
3.856,69.24
3.861333,69.1
3.866667,68.95
3.872,68.79
3.877333,68.64
3.882667,68.5
3.888,68.33
3.893333,68.19
3.898667,68.03
3.904,67.86
3.909333,67.72
3.914667,67.56
3.92,67.4
3.925333,67.28
3.930667,67.13
3.936,67
3.941333,66.87
3.946667,66.73
3.952,66.59
3.957333,66.48
3.962667,66.35
3.968,66.27
3.973333,66.21
3.978667,66.12
3.984,66.02
3.989333,65.95
3.994667,65.89
4,65.88
4.005333,65.8
4.010667,65.9
4.016,65.97
4.021333,66.23
4.026667,66.2
4.032,66.47
4.037333,66.49
4.042667,66.9
4.048,67.01
4.053333,67.21
4.058667,67.23
4.064,67.35
4.069333,67.38
4.074667,67.38
4.08,67.51
4.085333,67.5
4.090667,67.46
4.096,67.39
4.101333,67.33
4.106667,67.35
4.112,67.36
4.117333,67.42
4.122667,67.42
4.128,67.43
4.133333,67.5
4.138667,67.53
4.144,67.55
4.149333,67.68
4.154667,67.81
4.16,67.81
4.165333,67.86
4.170667,67.99
4.176,68.01
4.181333,68.02
4.186667,68.07
4.192,68.07
4.197333,68.08
4.202667,68.07
4.208,68.18
4.213333,68.21
4.218667,68.16
4.224,68.2
4.229333,68.18
4.234667,68.13
4.24,68.05
4.245333,68
4.250667,68.01
4.256,68.03
4.261333,68.04
4.266667,67.98
4.272,67.94
4.277333,67.84
4.282667,67.83
4.288,67.78
4.293333,67.72
4.298667,67.62
4.304,67.54
4.309333,67.44
4.314667,67.32
4.32,67.33
4.325333,67.29
4.330667,67.19
4.336,67.1
4.341333,67
4.346667,66.89
4.352,66.77
4.357333,66.68
4.362667,66.55
4.368,66.41
4.373333,66.35
4.378667,66.34
4.384,66.39
4.389333,66.57
4.394667,67
4.4,67.27
4.405333,67.36
4.410667,67.38
4.416,67.3
4.421333,67.32
4.426667,67.36
4.432,67.32
4.437333,67.37
4.442667,67.44
4.448,67.32
4.453333,67.21
4.458667,67.15
4.464,67.05
4.469333,66.93
4.474667,66.83
4.48,66.74
4.485333,66.66
4.490667,66.56
4.496,66.7
4.501333,66.92
4.506667,67.03
4.512,67.28
4.517333,67.34
4.522667,67.32
4.528,67.34
4.533333,67.39
4.538667,67.43
4.544,67.43
4.549333,67.31
4.554667,67.41
4.56,67.32
4.565333,67.19
4.570667,67.1
4.576,66.97
4.581333,66.87
4.586667,66.85
4.592,66.86
4.597333,66.95
4.602667,67.04
4.608,67.08
4.613333,67.26
4.618667,67.37
4.624,67.39
4.629333,67.41
4.634667,67.6
4.64,67.68
4.645333,67.67
4.650667,67.81
4.656,67.87
4.661333,67.96
4.666667,67.92
4.672,67.84
4.677333,67.78
4.682667,67.74
4.688,67.67
4.693333,67.62
4.698667,67.48
4.704,67.42
4.709333,67.29
4.714667,67.19
4.72,67.07
4.725333,67.01
4.730667,66.96
4.736,66.93
4.741333,66.85
4.746667,66.76
4.752,66.74
4.757333,66.65
4.762667,66.59
4.768,66.55
4.773333,66.47
4.778667,66.39
4.784,66.47
4.789333,66.49
4.794667,66.49
4.8,66.45
4.805333,66.41
4.810667,66.33
4.816,66.29
4.821333,66.21
4.826667,66.14
4.832,66.09
4.837333,66.12
4.842667,66.08
4.848,66.01
4.853333,66.03
4.858667,65.91
4.864,65.77
4.869333,65.64
4.874667,65.52
4.88,65.42
4.885333,65.3
4.890667,65.17
4.896,65.09
4.901333,64.98
4.906667,64.91
4.912,64.79
4.917333,64.65
4.922667,64.53
4.928,64.45
4.933333,64.33
4.938667,64.26
4.944,64.44
4.949333,64.58
4.954667,64.81
4.96,65.25
4.965333,65.61
4.970667,65.8
4.976,65.97
4.981333,66.48
4.986667,66.65
4.992,66.77
4.997333,66.8
5.002667,66.76
5.008,66.82
5.013333,66.83
5.018667,66.75
5.024,66.62
5.029333,66.6
5.034667,66.57
5.04,66.49
5.045333,66.4
5.050667,66.28
5.056,66.17
5.061333,66.11
5.066667,66.04
5.072,65.98
5.077333,65.94
5.082667,65.92
5.088,65.92
5.093333,66.06
5.098667,65.96
5.104,65.94
5.109333,65.9
5.114667,65.81
5.12,65.74
5.125333,65.69
5.130667,65.55
5.136,65.49
5.141333,65.4
5.146667,65.29
5.152,65.17
5.157333,65.07
5.162667,64.94
5.168,64.81
5.173333,64.68
5.178667,64.57
5.184,64.54
5.189333,64.42
5.194667,64.33
5.2,64.22
5.205333,64.13
5.210667,64.08
5.216,64.02
5.221333,63.9
5.226667,63.81
5.232,63.83
5.237333,64.32
5.242667,64.5
5.248,64.74
5.253333,64.91
5.258667,65.15
5.264,65.6
5.269333,65.94
5.274667,66.27
5.28,66.49
5.285333,66.76
5.290667,67.22
5.296,67.47
5.301333,67.99
5.306667,68.66
5.312,69.16
5.317333,69.26
5.322667,69.64
5.328,69.66
5.333333,69.54
5.338667,69.51
5.344,69.45
5.349333,69.45
5.354667,69.41
5.36,69.43
5.365333,69.41
5.370667,69.34
5.376,69.26
5.381333,69.16
5.386667,69.11
5.392,69.05
5.397333,68.93
5.402667,68.9
5.408,69.11
5.413333,69.36
5.418667,69.63
5.424,69.95
5.429333,70.14
5.434667,70.22
5.44,70.39
5.445333,70.41
5.450667,70.48
5.456,70.36
5.461333,70.23
5.466667,70.11
5.472,69.97
5.477333,69.84
5.482667,69.69
5.488,69.58
5.493333,69.48
5.498667,69.36
5.504,69.22
5.509333,69.08
5.514667,68.95
5.52,68.85
5.525333,68.71
5.530667,68.57
5.536,68.44
5.541333,68.35
5.546667,68.2
5.552,68.07
5.557333,67.94
5.562667,67.84
5.568,67.71
5.573333,67.59
5.578667,67.5
5.584,67.74
5.589333,67.9
5.594667,68.38
5.6,68.66
5.605333,69.07
5.610667,69.06
5.616,69.47
5.621333,70.31
5.626667,70.66
5.632,71.4
5.637333,72.8
5.642667,73.52
5.648,74.82
5.653333,74.89
5.658667,74.86
5.664,74.71
5.669333,74.58
5.674667,74.41
5.68,74.26
5.685333,74.08
5.690667,73.91
5.696,73.73
5.701333,73.57
5.706667,73.42
5.712,73.25
5.717333,73.09
5.722667,72.92
5.728,72.76
5.733333,72.61
5.738667,72.45
5.744,72.32
5.749333,72.17
5.754667,72.01
5.76,71.88
5.765333,71.74
5.770667,71.59
5.776,71.47
5.781333,71.35
5.786667,71.25
5.792,71.14
5.797333,71
5.802667,71
5.808,70.91
5.813333,70.88
5.818667,70.78
5.824,70.69
5.829333,70.62
5.834667,70.72
5.84,70.73
5.845333,70.67
5.850667,70.67
5.856,70.62
5.861333,70.57
5.866667,70.59
5.872,70.68
5.877333,70.54
5.882667,70.41
5.888,70.25
5.893333,70.1
5.898667,69.96
5.904,69.81
5.909333,69.68
5.914667,69.52
5.92,69.37
5.925333,69.23
5.930667,69.16
5.936,69.06
5.941333,68.92
5.946667,68.86
5.952,68.84
5.957333,69.01
5.962667,69.21
5.968,69.29
5.973333,69.36
5.978667,69.64
5.984,69.89
5.989333,69.95
5.994667,69.89
6,69.96
6.005333,69.87
6.010667,69.86
6.016,69.85
6.021333,69.84
6.026667,69.82
6.032,69.74
6.037333,69.77
6.042667,69.77
6.048,69.73
6.053333,69.63
6.058667,69.55
6.064,69.45
6.069333,69.32
6.074667,69.16
6.08,69.06
6.085333,68.9
6.090667,68.79
6.096,68.66
6.101333,68.52
6.106667,68.38
6.112,68.31
6.117333,68.23
6.122667,68.15
6.128,68.1
6.133333,68
6.138667,67.94
6.144,67.89
6.149333,67.78
6.154667,67.74
6.16,67.62
6.165333,67.87
6.170667,67.81
6.176,67.75
6.181333,68.16
6.186667,68.28
6.192,68.2
6.197333,68.49
6.202667,68.49
6.208,68.53
6.213333,68.48
6.218667,68.53
6.224,68.44
6.229333,68.39
6.234667,68.33
6.24,68.33
6.245333,68.21
6.250667,68.1
6.256,68.02
6.261333,67.94
6.266667,67.89
6.272,67.83
6.277333,67.77
6.282667,67.67
6.288,67.69
6.293333,67.62
6.298667,67.6
6.304,67.6
6.309333,67.64
6.314667,67.67
6.32,67.61
6.325333,67.6
6.330667,67.57
6.336,67.46
6.341333,67.32
6.346667,67.25
6.352,67.1
6.357333,67.08
6.362667,67.01
6.368,66.9
6.373333,67
6.378667,66.98
6.384,66.9
6.389333,66.81
6.394667,66.78
6.4,66.73
6.405333,66.62
6.410667,66.49
6.416,66.39
6.421333,66.28
6.426667,66.17
6.432,66.07
6.437333,66.03
6.442667,65.94
6.448,65.88
6.453333,65.79
6.458667,65.69
6.464,65.67
6.469333,65.63
6.474667,65.55
6.48,65.47
6.485333,65.39
6.490667,65.36
6.496,65.5
6.501333,65.43
6.506667,65.4
6.512,65.3
6.517333,65.18
6.522667,65.16
6.528,65.13
6.533333,65.02
6.538667,64.98
6.544,64.92
6.549333,64.82
6.554667,64.76
6.56,64.67
6.565333,64.53
6.570667,64.45
6.576,64.4
6.581333,64.42
6.586667,64.51
6.592,64.52
6.597333,64.81
6.602667,65.16
6.608,65.31
6.613333,65.57
6.618667,65.58
6.624,65.67
6.629333,65.77
6.634667,65.78
6.64,65.71
6.645333,65.67
6.650667,65.6
6.656,65.47
6.661333,65.34
6.666667,65.25
6.672,65.12
6.677333,65.06
6.682667,64.99
6.688,64.93
6.693333,64.84
6.698667,64.71
6.704,64.56
6.709333,64.5
6.714667,64.42
6.72,64.36
6.725333,64.25
6.730667,64.18
6.736,64.09
6.741333,63.97
6.746667,63.89
6.752,63.78
6.757333,63.68
6.762667,63.58
6.768,63.54
6.773333,63.41
6.778667,63.32
6.784,63.25
6.789333,63.17
6.794667,63.35
6.8,63.32
6.805333,63.36
6.810667,63.45
6.816,63.52
6.821333,63.68
6.826667,64.05
6.832,64.43
6.837333,64.64
6.842667,65.1
6.848,65.21
6.853333,65.56
6.858667,65.78
6.864,66.09
6.869333,66.18
6.874667,66.34
6.88,66.64
6.885333,66.77
6.890667,66.99
6.896,66.97
6.901333,66.87
6.906667,66.95
6.912,66.98
6.917333,67.11
6.922667,67.25
6.928,67.16
6.933333,67.06
6.938667,67.01
6.944,67.07
6.949333,67.03
6.954667,66.94
6.96,66.92
6.965333,67.03
6.970667,66.98
6.976,67
6.981333,66.87
6.986667,66.8
6.992,66.72
6.997333,66.75
7.002667,66.66
7.008,66.7
7.013333,66.73
7.018667,66.82
7.024,67.09
7.029333,67.16
7.034667,67.14
7.04,67.29
7.045333,67.27
7.050667,67.27
7.056,67.22
7.061333,67.21
7.066667,67.11
7.072,67.1
7.077333,67.05
7.082667,67.15
7.088,67.2
7.093333,67.28
7.098667,67.34
7.104,67.58
7.109333,67.72
7.114667,67.77
7.12,67.94
7.125333,68
7.130667,68.07
7.136,68
7.141333,67.87
7.146667,67.79
7.152,67.69
7.157333,67.58
7.162667,67.42
7.168,67.29
7.173333,67.17
7.178667,67.04
7.184,66.93
7.189333,66.83
7.194667,66.73
7.2,66.6
7.205333,66.52
7.210667,66.4
7.216,66.34
7.221333,66.22
7.226667,66.1
7.232,65.97
7.237333,65.85
7.242667,65.8
7.248,65.67
7.253333,65.59
7.258667,65.5
7.264,65.43
7.269333,65.31
7.274667,65.21
7.28,65.12
7.285333,65.16
7.290667,65.11
7.296,65.02
7.301333,64.94
7.306667,65.06
7.312,65.18
7.317333,65.1
7.322667,65.1
7.328,65.06
7.333333,65.02
7.338667,65.1
7.344,65.18
7.349333,65.25
7.354667,65.19
7.36,65.29
7.365333,65.73
7.370667,66.05
7.376,66.16
7.381333,66.4
7.386667,66.5
7.392,66.49
7.397333,66.38
7.402667,66.33
7.408,66.43
7.413333,66.46
7.418667,66.44
7.424,66.38
7.429333,66.35
7.434667,66.26
7.44,66.19
7.445333,66.1
7.450667,65.98
7.456,65.9
7.461333,65.79
7.466667,65.72
7.472,65.66
7.477333,65.55
7.482667,65.46
7.488,65.41
7.493333,65.28
7.498667,65.14
7.504,65.02
7.509333,64.91
7.514667,64.8
7.52,64.71
7.525333,64.6
7.530667,64.47
7.536,64.37
7.541333,64.38
7.546667,64.25
7.552,64.16
7.557333,64.09
7.562667,64.02
7.568,63.93
7.573333,63.86
7.578667,63.84
7.584,63.76
7.589333,63.76
7.594667,63.66
7.6,63.63
7.605333,63.63
7.610667,63.55
7.616,63.47
7.621333,63.39
7.626667,63.36
7.632,63.28
7.637333,63.21
7.642667,63.12
7.648,63.17
7.653333,63.09
7.658667,63.01
7.664,63.01
7.669333,63.02
7.674667,62.99
7.68,62.92
7.685333,62.95
7.690667,62.89
7.696,62.82
7.701333,62.78
7.706667,62.75
7.712,62.79
7.717333,62.83
7.722667,62.83
7.728,62.88
7.733333,62.96
7.738667,62.87
7.744,62.96
7.749333,63.13
7.754667,63.11
7.76,63.04
7.765333,63.02
7.770667,62.96
7.776,62.91
7.781333,63
7.786667,62.97
7.792,63
7.797333,62.94
7.802667,62.88
7.808,62.83
7.813333,62.85
7.818667,62.88
7.824,63.08
7.829333,63
7.834667,63.11
7.84,63
7.845333,62.93
7.850667,62.83
7.856,62.74
7.861333,62.64
7.866667,62.58
7.872,62.65
7.877333,62.56
7.882667,62.54
7.888,62.68
7.893333,62.61
7.898667,62.5
7.904,62.48
7.909333,62.44
7.914667,62.37
7.92,62.37
7.925333,62.39
7.930667,62.39
7.936,62.37
7.941333,62.28
7.946667,62.27
7.952,62.22
7.957333,62.21
7.962667,62.35
7.968,62.36
7.973333,62.35
7.978667,62.31
7.984,62.26
7.989333,62.23
7.994667,62.19
8,62.28
8.005333,62.22
8.010667,62.23
8.016,62.15
8.021333,62.28
8.026667,62.44
8.032,62.52
8.037333,62.43
8.042667,62.37
8.048,62.29
8.053333,62.27
8.058667,62.26
8.064,62.22
8.069333,62.17
8.074667,62.1
8.08,62.09
8.085333,62
8.090667,61.91
8.096,61.9
8.101333,61.96
8.106667,61.92
8.112,61.86
8.117333,61.83
8.122667,61.81
8.128,61.77
8.133333,61.71
8.138667,61.7
8.144,61.85
8.149333,61.83
8.154667,61.81
8.16,61.78
8.165333,61.71
8.170667,61.65
8.176,61.63
8.181333,61.65
8.186667,61.75
8.192,61.69
8.197333,61.72
8.202667,61.68
8.208,61.67
8.213333,61.81
8.218667,61.78
8.224,61.69
8.229333,61.62
8.234667,61.53
8.24,61.41
8.245333,61.38
8.250667,61.31
8.256,61.33
8.261333,61.3
8.266667,61.26
8.272,61.2
8.277333,61.16
8.282667,61.18
8.288,61.17
8.293333,61.13
8.298667,61.07
8.304,61.06
8.309333,60.98
8.314667,61.1
8.32,61.09
8.325333,61.09
8.330667,61.15
8.336,61.07
8.341333,61.12
8.346667,61.04
8.352,61.44
8.357333,62.38
8.362667,62.37
8.368,62.47
8.373333,62.56
8.378667,62.53
8.384,62.48
8.389333,62.44
8.394667,62.4
8.4,62.37
8.405333,62.28
8.410667,62.31
8.416,62.25
8.421333,62.18
8.426667,62.13
8.432,62.19
8.437333,62.33
8.442667,62.28
8.448,62.23
8.453333,62.24
8.458667,62.15
8.464,62.34
8.469333,62.42
8.474667,62.39
8.48,62.43
8.485333,63
8.490667,63.14
8.496,63.77
8.501333,64.01
8.506667,64.05
8.512,64.09
8.517333,64.18
8.522667,64.25
8.528,64.16
8.533333,64.21
8.538667,64.18
8.544,64.25
8.549333,64.2
8.554667,64.17
8.56,64.08
8.565333,64.02
8.570667,63.96
8.576,63.84
8.581333,63.77
8.586667,64.02
8.592,63.92
8.597333,63.91
8.602667,63.81
8.608,63.72
8.613333,63.67
8.618667,63.58
8.624,63.5
8.629333,63.39
8.634667,63.24
8.64,63.12
8.645333,63.03
8.650667,63.03
8.656,63.12
8.661333,63.05
8.666667,63.06
8.672,63
8.677333,63.01
8.682667,62.96
8.688,62.89
8.693333,62.87
8.698667,62.83
8.704,62.77
8.709333,62.67
8.714667,62.72
8.72,62.76
8.725333,62.72
8.730667,62.68
8.736,62.71
8.741333,62.71
8.746667,62.64
8.752,62.59
8.757333,62.55
8.762667,62.48
8.768,62.44
8.773333,62.36
8.778667,62.4
8.784,62.34
8.789333,62.3
8.794667,62.29
8.8,62.3
8.805333,62.23
8.810667,62.28
8.816,62.36
8.821333,62.31
8.826667,62.5
8.832,62.74
8.837333,62.72
8.842667,62.8
8.848,63.94
8.853333,63.91
8.858667,63.95
8.864,64.25
8.869333,64.27
8.874667,64.24
8.88,64.15
8.885333,64.13
8.890667,64.21
8.896,64.23
8.901333,64.17
8.906667,64.11
8.912,64.08
8.917333,64.06
8.922667,64.09
8.928,64.05
8.933333,64.02
8.938667,63.96
8.944,63.99
8.949333,63.9
8.954667,63.84
8.96,63.81
8.965333,63.78
8.970667,63.66
8.976,63.61
8.981333,63.52
8.986667,63.39
8.992,63.29
8.997333,63.21
9.002667,63.12
9.008,63.08
9.013333,63.05
9.018667,63.04
9.024,62.99
9.029333,62.99
9.034667,63.08
9.04,63.06
9.045333,63.09
9.050667,63.12
9.056,63.18
9.061333,63.09
9.066667,63.15
9.072,63.39
9.077333,63.64
9.082667,63.88
9.088,64.02
9.093333,64.16
9.098667,64.17
9.104,64.21
9.109333,64.28
9.114667,64.56
9.12,64.98
9.125333,65.05
9.130667,65.27
9.136,65.25
9.141333,65.2
9.146667,65.19
9.152,65.21
9.157333,65.18
9.162667,65.07
9.168,64.98
9.173333,64.9
9.178667,64.81
9.184,64.8
9.189333,64.7
9.194667,64.69
9.2,64.83
9.205333,64.75
9.210667,64.66
9.216,64.58
9.221333,64.53
9.226667,64.46
9.232,64.4
9.237333,64.42
9.242667,64.59
9.248,64.58
9.253333,64.9
9.258667,64.94
9.264,64.81
9.269333,64.73
9.274667,64.71
9.28,64.77
9.285333,64.75
9.290667,64.74
9.296,64.72
9.301333,64.7
9.306667,64.63
9.312,64.57
9.317333,64.47
9.322667,64.46
9.328,64.43
9.333333,64.42
9.338667,64.35
9.344,65.12
9.349333,65.12
9.354667,65.04
9.36,65.02
9.365333,65.01
9.370667,65
9.376,65.01
9.381333,64.9
9.386667,64.83
9.392,64.71
9.397333,64.69
9.402667,64.63
9.408,64.65
9.413333,64.69
9.418667,64.7
9.424,64.62
9.429333,64.55
9.434667,64.54
9.44,64.48
9.445333,64.4
9.450667,64.42
9.456,64.35
9.461333,64.24
9.466667,64.1
9.472,64.07
9.477333,64
9.482667,63.96
9.488,63.86
9.493333,63.81
9.498667,63.73
9.504,63.66
9.509333,63.61
9.514667,63.56
9.52,63.44
9.525333,63.35
9.530667,63.37
9.536,63.26
9.541333,63.22
9.546667,63.2
9.552,63.11
9.557333,63.06
9.562667,62.96
9.568,62.84
9.573333,62.9
9.578667,63.07
9.584,62.99
9.589333,62.89
9.594667,62.82
9.6,62.74
9.605333,62.72
9.610667,62.64
9.616,62.55
9.621333,62.55
9.626667,62.58
9.632,62.56
9.637333,62.46
9.642667,62.38
9.648,62.29
9.653333,62.27
9.658667,62.25
9.664,62.22
9.669333,62.15
9.674667,62.18
9.68,62.08
9.685333,62.17
9.690667,62.27
9.696,62.27
9.701333,62.3
9.706667,62.34
9.712,62.39
9.717333,62.39
9.722667,62.36
9.728,62.33
9.733333,62.47
9.738667,63
9.744,62.97
9.749333,62.97
9.754667,62.84
9.76,62.77
9.765333,62.77
9.770667,62.7
9.776,62.7
9.781333,62.64
9.786667,62.61
9.792,62.59
9.797333,62.59
9.802667,62.62
9.808,62.53
9.813333,62.6
9.818667,62.71
9.824,62.74
9.829333,63.02
9.834667,63.59
9.84,63.66
9.845333,63.66
9.850667,63.71
9.856,63.71
9.861333,63.72
9.866667,63.63
9.872,63.68
9.877333,63.64
9.882667,63.6
9.888,63.57
9.893333,63.5
9.898667,63.46
9.904,63.47
9.909333,63.48
9.914667,63.41
9.92,63.4
9.925333,63.29
9.930667,63.22
9.936,63.16
9.941333,63.06
9.946667,62.95
9.952,62.89
9.957333,62.81
9.962667,62.79
9.968,62.77
9.973333,62.76
9.978667,62.76
9.984,62.78
9.989333,62.74
9.994667,62.8
10,62.76
10.005333,62.69
10.010667,62.76
10.016,62.78
10.021333,62.71
10.026667,62.58
10.032,62.46
10.037333,62.41
10.042667,62.31
10.048,62.29
10.053333,62.25
10.058667,62.19
10.064,62.31
10.069333,62.25
10.074667,62.38
10.08,62.42
10.085333,62.46
10.090667,62.54
10.096,62.63
10.101333,62.64
10.106667,62.65
10.112,62.82
10.117333,62.93
10.122667,63
10.128,63.07
10.133333,63.28
10.138667,63.4
10.144,63.56
10.149333,63.57
10.154667,63.51
10.16,63.5
10.165333,63.47
10.170667,63.47
10.176,63.41
10.181333,63.43
10.186667,63.34
10.192,63.28
10.197333,63.19
10.202667,63.15
10.208,63.09
10.213333,63.01
10.218667,62.95
10.224,62.92
10.229333,62.83
10.234667,62.75
10.24,62.66
10.245333,62.73
10.250667,62.68
10.256,62.67
10.261333,62.68
10.266667,62.67
10.272,62.66
10.277333,62.63
10.282667,62.76
10.288,62.79
10.293333,63
10.298667,63.86
10.304,64.01
10.309333,64.23
10.314667,64.46
10.32,64.67
10.325333,64.72
10.330667,64.69
10.336,64.85
10.341333,65.81
10.346667,65.93
10.352,65.86
10.357333,65.76
10.362667,65.63
10.368,65.53
10.373333,65.46
10.378667,65.35
10.384,65.29
10.389333,65.35
10.394667,65.36
10.4,65.31
10.405333,65.45
10.410667,65.48
10.416,65.48
10.421333,65.46
10.426667,65.41
10.432,65.34
10.437333,65.32
10.442667,65.25
10.448,65.22
10.453333,65.22
10.458667,65.12
10.464,65.03
10.469333,64.98
10.474667,64.9
10.48,64.8
10.485333,64.68
10.490667,64.59
10.496,64.49
10.501333,64.46
10.506667,64.36
10.512,64.37
10.517333,64.31
10.522667,64.26
10.528,64.2
10.533333,64.28
10.538667,64.2
10.544,64.14
10.549333,64.15
10.554667,64.23
10.56,64.23
10.565333,64.18
10.570667,64.1
10.576,64.05
10.581333,63.99
10.586667,63.96
10.592,63.98
10.597333,63.92
10.602667,63.86
10.608,63.8
10.613333,63.68
10.618667,63.57
10.624,63.48
10.629333,63.4
10.634667,63.28
10.64,63.24
10.645333,63.18
10.650667,63.13
10.656,63.07
10.661333,62.98
10.666667,62.88
10.672,62.8
10.677333,62.72
10.682667,62.72
10.688,62.7
10.693333,62.65
10.698667,62.58
10.704,62.59
10.709333,62.6
10.714667,62.66
10.72,62.66
10.725333,62.65
10.730667,62.73
10.736,62.65
10.741333,62.67
10.746667,62.8
10.752,62.82
10.757333,62.89
10.762667,62.99
10.768,63.07
10.773333,63.09
10.778667,63.07
10.784,63.05
10.789333,63.11
10.794667,63.17
10.8,63.15
10.805333,63.28
10.810667,63.28
10.816,63.35
10.821333,64.62
10.826667,64.59
10.832,64.58
10.837333,64.58
10.842667,64.63
10.848,64.59
10.853333,64.71
10.858667,64.71
10.864,64.68
10.869333,65.55
10.874667,65.6
10.88,65.52
10.885333,65.46
10.890667,65.4
10.896,65.31
10.901333,65.2
10.906667,65.16
10.912,65.11
10.917333,65.07
10.922667,64.99
10.928,64.87
10.933333,64.93
10.938667,64.93
10.944,64.89
10.949333,64.77
10.954667,64.72
10.96,64.62
10.965333,64.6
10.970667,64.6
10.976,64.88
10.981333,64.84
10.986667,64.87
10.992,65.02
10.997333,65.1
11.002667,65.25
11.008,65.27
11.013333,65.32
11.018667,65.45
11.024,65.48
11.029333,65.53
11.034667,65.49
11.04,65.46
11.045333,65.59
11.050667,65.73
11.056,65.83
11.061333,65.94
11.066667,66.29
11.072,66.32
11.077333,66.45
11.082667,66.46
11.088,66.36
11.093333,66.31
11.098667,66.25
11.104,66.17
11.109333,66.04
11.114667,66.02
11.12,65.9
11.125333,65.81
11.130667,65.88
11.136,65.88
11.141333,65.83
11.146667,65.81
11.152,65.71
11.157333,65.73
11.162667,65.65
11.168,65.64
11.173333,65.72
11.178667,65.63
11.184,65.65
11.189333,65.66
11.194667,65.65
11.2,65.62
11.205333,65.6
11.210667,65.67
11.216,65.72
11.221333,65.73
11.226667,65.74
11.232,65.87
11.237333,66.04
11.242667,66.01
11.248,66.16
11.253333,66.29
11.258667,66.53
11.264,66.54
11.269333,66.63
11.274667,66.61
11.28,66.69
11.285333,66.66
11.290667,66.6
11.296,66.66
11.301333,66.62
11.306667,66.53
11.312,67.18
11.317333,67.04
11.322667,66.94
11.328,66.79
11.333333,66.65
11.338667,66.58
11.344,66.47
11.349333,66.4
11.354667,66.39
11.36,66.32
11.365333,66.23
11.370667,66.12
11.376,66.04
11.381333,65.93
11.386667,65.83
11.392,65.72
11.397333,65.65
11.402667,65.64
11.408,65.6
11.413333,65.52
11.418667,65.45
11.424,65.5
11.429333,65.44
11.434667,65.4
11.44,65.43
11.445333,65.33
11.450667,66.05
11.456,66.24
11.461333,66.24
11.466667,66.22
11.472,66.13
11.477333,66.12
11.482667,66.21
11.488,66.16
11.493333,66.28
11.498667,66.32
11.504,66.42
11.509333,66.43
11.514667,66.46
11.52,66.39
11.525333,66.35
11.530667,66.28
11.536,66.2
11.541333,66.17
11.546667,66.13
11.552,66.1
11.557333,66.03
11.562667,65.96
11.568,65.91
11.573333,65.84
11.578667,65.76
11.584,65.67
11.589333,65.55
11.594667,65.42
11.6,65.32
11.605333,65.24
11.610667,65.11
11.616,65
11.621333,64.9
11.626667,64.79
11.632,64.66
11.637333,64.54
11.642667,64.43
11.648,64.37
11.653333,64.35
11.658667,64.25
11.664,64.17
11.669333,64.1
11.674667,64.02
11.68,63.94
11.685333,63.87
11.690667,63.89
11.696,63.85
11.701333,63.78
11.706667,63.9
11.712,64.1
11.717333,64.38
11.722667,64.69
11.728,64.63
11.733333,64.56
11.738667,64.67
11.744,64.63
11.749333,64.63
11.754667,64.58
11.76,64.86
11.765333,64.77
11.770667,64.81
11.776,64.83
11.781333,64.83
11.786667,64.79
11.792,64.8
11.797333,64.87
11.802667,64.79
11.808,64.75
11.813333,64.78
11.818667,64.72
11.824,64.67
11.829333,64.56
11.834667,64.5
11.84,64.41
11.845333,64.34
11.850667,64.36
11.856,64.27
11.861333,64.19
11.866667,64.15
11.872,64.08
11.877333,64.1
11.882667,64.55
11.888,64.5
11.893333,64.46
11.898667,64.48
11.904,64.37
11.909333,64.28
11.914667,64.25
11.92,64.23
11.925333,64.25
11.930667,64.13
11.936,64.13
11.941333,64.11
11.946667,64.05
11.952,64.05
11.957333,63.96
11.962667,63.87
11.968,63.78
11.973333,63.84
11.978667,63.73
11.984,63.69
11.989333,63.6
11.994667,63.49
12,63.44
12.005333,63.36
12.010667,63.28
12.016,63.49
12.021333,63.49
12.026667,63.39
12.032,63.9
12.037333,64.71
12.042667,64.67
12.048,64.56
12.053333,64.51
12.058667,64.46
12.064,64.4
12.069333,64.44
12.074667,64.45
12.08,64.43
12.085333,64.34
12.090667,64.27
12.096,64.49
12.101333,64.47
12.106667,64.48
12.112,64.4
12.117333,64.3
12.122667,64.26
12.128,64.37
12.133333,64.47
12.138667,64.48
12.144,64.38
12.149333,64.31
12.154667,64.29
12.16,64.27
12.165333,64.21
12.170667,64.1
12.176,64.06
12.181333,64.05
12.186667,63.98
12.192,63.95
12.197333,63.99
12.202667,63.91
12.208,63.87
12.213333,63.86
12.218667,63.8
12.224,63.74
12.229333,63.67
12.234667,63.71
12.24,63.72
12.245333,63.83
12.250667,63.76
12.256,63.87
12.261333,63.9
12.266667,64.04
12.272,64.12
12.277333,64.14
12.282667,64.12
12.288,64.14
12.293333,64.19
12.298667,64.26
12.304,64.38
12.309333,65.36
12.314667,65.34
12.32,65.47
12.325333,65.43
12.330667,65.38
12.336,65.42
12.341333,65.33
12.346667,65.31
12.352,65.23
12.357333,65.26
12.362667,65.21
12.368,65.2
12.373333,65.16
12.378667,65.15
12.384,65.1
12.389333,64.99
12.394667,64.88
12.4,64.79
12.405333,64.72
12.410667,64.64
12.416,64.65
12.421333,64.57
12.426667,64.54
12.432,64.52
12.437333,64.46
12.442667,64.39
12.448,64.34
12.453333,64.4
12.458667,64.39
12.464,64.35
12.469333,64.34
12.474667,64.27
12.48,64.26
12.485333,64.29
12.490667,64.28
12.496,64.28
12.501333,64.43
12.506667,64.6
12.512,64.78
12.517333,64.81
12.522667,64.95
12.528,65.19
12.533333,65.29
12.538667,65.35
12.544,65.39
12.549333,65.45
12.554667,65.6
12.56,65.57
12.565333,65.59
12.570667,65.54
12.576,65.54
12.581333,65.51
12.586667,65.52
12.592,65.49
12.597333,66.83
12.602667,67.08
12.608,67.18
12.613333,67.2
12.618667,67.3
12.624,67.29
12.629333,67.26
12.634667,67.17
12.64,67.2
12.645333,67.12
12.650667,67.09
12.656,67.03
12.661333,66.92
12.666667,66.83
12.672,66.86
12.677333,66.82
12.682667,66.84
12.688,66.81
12.693333,66.83
12.698667,66.77
12.704,66.71
12.709333,66.61
12.714667,66.52
12.72,66.42
12.725333,66.46
12.730667,66.37
12.736,66.37
12.741333,66.36
12.746667,66.22
12.752,66.19
12.757333,66.13
12.762667,66.05
12.768,65.91
12.773333,65.81
12.778667,65.72
12.784,65.63
12.789333,65.57
12.794667,65.48
12.8,65.41
12.805333,65.33
12.810667,65.53
12.816,65.48
12.821333,65.46
12.826667,65.87
12.832,65.86
12.837333,65.85
12.842667,65.76
12.848,65.65
12.853333,65.59
12.858667,65.54
12.864,65.44
12.869333,65.36
12.874667,65.26
12.88,65.22
12.885333,65.09
12.890667,64.96
12.896,64.91
12.901333,64.8
12.906667,64.72
12.912,64.61
12.917333,64.51
12.922667,64.51
12.928,64.5
12.933333,64.43
12.938667,64.34
12.944,64.25
12.949333,64.22
12.954667,64.15
12.96,64.03
12.965333,64.01
12.970667,64.04
12.976,63.97
12.981333,63.92
12.986667,63.83
12.992,63.75
12.997333,63.75
13.002667,63.81
13.008,63.74
13.013333,63.74
13.018667,63.74
13.024,63.91
13.029333,63.94
13.034667,64
13.04,63.99
13.045333,64.04
13.050667,63.95
13.056,63.9
13.061333,63.84
13.066667,63.73
13.072,63.79
13.077333,63.71
13.082667,63.69
13.088,63.71
13.093333,63.74
13.098667,63.81
13.104,63.85
13.109333,64
13.114667,64
13.12,64.07
13.125333,64.09
13.130667,64.34
13.136,64.59
13.141333,65.29
13.146667,65.43
13.152,65.49
13.157333,65.57
13.162667,65.61
13.168,65.85
13.173333,66.16
13.178667,66.18
13.184,66.34
13.189333,66.27
13.194667,66.38
13.2,66.38
13.205333,66.33
13.210667,66.26
13.216,66.18
13.221333,66.13
13.226667,66.05
13.232,66.01
13.237333,65.96
13.242667,65.86
13.248,65.74
13.253333,65.67
13.258667,65.7
13.264,65.64
13.269333,65.63
13.274667,65.64
13.28,65.66
13.285333,65.86
13.290667,65.79
13.296,65.71
13.301333,65.62
13.306667,65.59
13.312,65.47
13.317333,66.11
13.322667,66.1
13.328,66.02
13.333333,65.98
13.338667,65.86
13.344,65.8
13.349333,65.66
13.354667,65.58
13.36,65.48
13.365333,65.81
13.370667,65.77
13.376,65.68
13.381333,65.59
13.386667,65.55
13.392,65.49
13.397333,65.44
13.402667,65.41
13.408,65.5
13.413333,65.5
13.418667,65.56
13.424,65.46
13.429333,65.37
13.434667,65.38
13.44,65.54
13.445333,65.52
13.450667,65.48
13.456,65.52
13.461333,65.75
13.466667,65.91
13.472,66.17
13.477333,66.32
13.482667,66.41
13.488,66.43
13.493333,66.36
13.498667,66.41
13.504,66.36
13.509333,66.35
13.514667,66.36
13.52,66.33
13.525333,66.32
13.530667,66.26
13.536,66.19
13.541333,66.11
13.546667,66.05
13.552,65.96
13.557333,65.9
13.562667,65.98
13.568,65.97
13.573333,65.92
13.578667,65.91
13.584,65.91
13.589333,65.82
13.594667,65.75
13.6,65.81
13.605333,65.86
13.610667,65.84
13.616,65.76
13.621333,65.7
13.626667,65.81
13.632,66.02
13.637333,66.34
13.642667,66.32
13.648,66.27
13.653333,66.19
13.658667,66.19
13.664,66.15
13.669333,66.16
13.674667,66.24
13.68,66.27
13.685333,66.2
13.690667,66.06
13.696,65.96
13.701333,66
13.706667,65.92
13.712,65.81
13.717333,65.7
13.722667,65.6
13.728,65.53
13.733333,66.21
13.738667,66.13
13.744,66.15
13.749333,66.13
13.754667,66.38
13.76,66.43
13.765333,66.42
13.770667,66.34
13.776,66.26
13.781333,66.16
13.786667,66.07
13.792,65.97
13.797333,65.98
13.802667,65.85
13.808,65.81
13.813333,65.89
13.818667,66.01
13.824,65.96
13.829333,65.85
13.834667,65.75
13.84,65.72
13.845333,65.77
13.850667,65.71
13.856,65.61
13.861333,65.6
13.866667,65.48
13.872,65.43
13.877333,65.33
13.882667,65.26
13.888,65.17
13.893333,65.08
13.898667,64.97
13.904,64.87
13.909333,64.8
13.914667,64.72
13.92,64.72
13.925333,64.61
13.930667,64.51
13.936,64.42
13.941333,64.4
13.946667,64.37
13.952,64.24
13.957333,64.16
13.962667,64.08
13.968,64.15
13.973333,64.04
13.978667,63.98
13.984,64.03
13.989333,64.09
13.994667,64.27
14,64.3
14.005333,64.33
14.010667,64.41
14.016,64.52
14.021333,64.53
14.026667,64.55
14.032,64.45
14.037333,64.39
14.042667,64.37
14.048,64.27
14.053333,64.29
14.058667,64.32
14.064,64.33
14.069333,64.37
14.074667,64.56
14.08,64.58
14.085333,64.58
14.090667,64.63
14.096,64.71
14.101333,64.78
14.106667,64.7
14.112,64.75
14.117333,64.71
14.122667,64.67
14.128,64.64
14.133333,64.67
14.138667,64.7
14.144,64.66
14.149333,64.54
14.154667,64.48
14.16,64.4
14.165333,64.41
14.170667,64.61
14.176,64.58
14.181333,64.51
14.186667,64.47
14.192,64.52
14.197333,64.49
14.202667,64.82
14.208,64.87
14.213333,64.8
14.218667,64.86
14.224,64.85
14.229333,64.72
14.234667,64.69
14.24,64.69
14.245333,64.65
14.250667,64.75
14.256,64.72
14.261333,64.7
14.266667,64.74
14.272,64.82
14.277333,64.9
14.282667,64.84
14.288,64.81
14.293333,64.88
14.298667,64.82
14.304,64.88
14.309333,64.86
14.314667,65.13
14.32,65.08
14.325333,65.12
14.330667,65.25
14.336,65.47
14.341333,65.4
14.346667,65.38
14.352,65.34
14.357333,65.31
14.362667,65.35
14.368,65.31
14.373333,65.28
14.378667,65.22
14.384,65.3
14.389333,65.21
14.394667,65.18
14.4,65.25
14.405333,65.23
14.410667,65.18
14.416,65.21
14.421333,65.38
14.426667,65.38
14.432,65.57
14.437333,65.68
14.442667,65.65
14.448,65.59
14.453333,65.61
14.458667,65.63
14.464,65.6
14.469333,65.54
14.474667,65.52
14.48,65.44
14.485333,65.52
14.490667,65.63
14.496,65.66
14.501333,65.68
14.506667,65.67
14.512,65.77
14.517333,65.82
14.522667,65.75
14.528,65.86
14.533333,65.79
14.538667,65.85
14.544,65.81
14.549333,65.86
14.554667,65.85
14.56,65.81
14.565333,65.77
14.570667,65.71
14.576,65.74
14.581333,65.74
14.586667,65.68
14.592,65.72
14.597333,65.68
14.602667,65.7
14.608,65.96
14.613333,66.09
14.618667,66.17
14.624,66.59
14.629333,66.98
14.634667,67.43
14.64,67.77
14.645333,68.12
14.650667,68.43
14.656,68.65
14.661333,68.99
14.666667,69.41
14.672,69.78
14.677333,69.92
14.682667,70.49
14.688,70.8
14.693333,70.95
14.698667,71.07
14.704,71.03
14.709333,70.93
14.714667,70.86
14.72,70.75
14.725333,70.65
14.730667,70.53
14.736,70.43
14.741333,70.28
14.746667,70.16
14.752,70.03
14.757333,69.91
14.762667,69.84
14.768,69.72
14.773333,69.63
14.778667,69.49
14.784,69.35
14.789333,69.22
14.794667,69.07
14.8,68.99
14.805333,68.85
14.810667,68.79
14.816,68.66
14.821333,68.52
14.826667,68.4
14.832,68.34
14.837333,68.22
14.842667,68.12
14.848,68.01
14.853333,67.96
14.858667,67.83
14.864,67.75
14.869333,67.71
14.874667,67.6
14.88,67.52
14.885333,67.43
14.890667,67.31
14.896,67.28
14.901333,67.26
14.906667,67.18
14.912,67.15
14.917333,67.06
14.922667,67.02
14.928,67.03
14.933333,66.97
14.938667,66.88
14.944,66.85
14.949333,66.89
14.954667,66.8
14.96,66.86
14.965333,66.97
14.970667,67.11
14.976,67.19
14.981333,67.14
14.986667,67.19
14.992,67.21
14.997333,67.29
15.002667,67.21
15.008,67.15
15.013333,67.12
15.018667,67.1
15.024,67.12
15.029333,67.15
15.034667,67.14
15.04,67.11
15.045333,67.33
15.050667,67.33
15.056,67.44
15.061333,67.64
15.066667,67.61
15.072,67.58
15.077333,67.53
15.082667,67.46
15.088,67.4
15.093333,67.43
15.098667,67.36
15.104,67.31
15.109333,67.24
15.114667,67.16
15.12,67.12
15.125333,67.03
15.130667,67
15.136,66.94
15.141333,66.94
15.146667,66.84
15.152,66.82
15.157333,66.91
15.162667,66.97
15.168,67.35
15.173333,67.99
15.178667,68.49
15.184,68.58
15.189333,68.69
15.194667,68.99
15.2,69.38
15.205333,69.94
15.210667,70.18
15.216,70.22
15.221333,70.13
15.226667,70.13
15.232,70.06
15.237333,70.02
15.242667,69.93
15.248,69.85
15.253333,69.77
15.258667,69.66
15.264,69.57
15.269333,69.57
15.274667,69.49
15.28,69.37
15.285333,69.31
15.290667,69.19
15.296,69.13
15.301333,69.03
15.306667,69.04
15.312,68.96
15.317333,68.86
15.322667,69
15.328,68.98
15.333333,68.97
15.338667,68.9
15.344,69
15.349333,68.94
15.354667,68.95
15.36,68.86
15.365333,68.92
15.370667,69.08
15.376,69
15.381333,69.08
15.386667,69.2
15.392,69.17
15.397333,69.13
15.402667,69.3
15.408,69.27
15.413333,69.23
15.418667,69.15
15.424,69.03
15.429333,68.89
15.434667,68.79
15.44,68.78
15.445333,68.66
15.450667,68.63
15.456,68.58
15.461333,68.5
15.466667,68.39
15.472,68.3
15.477333,68.3
15.482667,68.22
15.488,68.11
15.493333,68.03
15.498667,67.97
15.504,67.96
15.509333,67.84
15.514667,67.74
15.52,67.64
15.525333,67.65
15.530667,67.61
15.536,67.52
15.541333,67.48
15.546667,67.39
15.552,67.36
15.557333,67.35
15.562667,67.28
15.568,67.24
15.573333,67.31
15.578667,67.28
15.584,67.17
15.589333,67.1
15.594667,67.08
15.6,67.03
15.605333,66.96
15.610667,66.83
15.616,66.72
15.621333,66.7
15.626667,67.06
15.632,67.02
15.637333,66.95
15.642667,66.88
15.648,66.8
15.653333,66.76
15.658667,66.74
15.664,66.71
15.669333,66.6
15.674667,66.69
15.68,66.92
15.685333,67.16
15.690667,67.38
15.696,68.22
15.701333,68.45
15.706667,68.63
15.712,68.93
15.717333,68.98
15.722667,69.2
15.728,69.26
15.733333,69.31
15.738667,69.51
15.744,69.76
15.749333,69.88
15.754667,69.8
15.76,70.05
15.765333,70.15
15.770667,70.26
15.776,70.4
15.781333,70.44
15.786667,70.55
15.792,70.6
15.797333,70.69
15.802667,70.76
15.808,70.67
15.813333,70.57
15.818667,70.49
15.824,70.44
15.829333,70.37
15.834667,70.25
15.84,70.16
15.845333,70.01
15.850667,69.87
15.856,69.76
15.861333,69.63
15.866667,69.59
15.872,69.54
15.877333,69.42
15.882667,69.35
15.888,69.22
15.893333,69.12
15.898667,69.07
15.904,69.06
15.909333,69
15.914667,68.93
15.92,68.88
15.925333,68.79
15.930667,68.7
15.936,68.71
15.941333,68.6
15.946667,68.48
15.952,68.46
15.957333,68.38
15.962667,68.25
15.968,68.13
15.973333,68.11
15.978667,68.12
15.984,68.02
15.989333,67.98
15.994667,67.94
16,67.83
16.005333,67.82
16.010667,67.77
16.016,67.74
16.021333,67.65
16.026667,67.56
16.032,67.53
16.037333,67.43
16.042667,67.37
16.048,67.27
16.053333,67.22
16.058667,67.11
16.064,67.09
16.069333,67.04
16.074667,66.94
16.08,66.88
16.085333,66.79
16.090667,66.77
16.096,66.75
16.101333,66.67
16.106667,66.63
16.112,66.6
16.117333,66.53
16.122667,66.43
16.128,66.3
16.133333,66.27
16.138667,66.22
16.144,66.18
16.149333,66.4
16.154667,66.37
16.16,66.31
16.165333,66.23
16.170667,66.13
16.176,66.07
16.181333,66.03
16.186667,65.98
16.192,65.93
16.197333,65.91
16.202667,65.97
16.208,66
16.213333,65.96
16.218667,65.99
16.224,66.03
16.229333,66.16
16.234667,66.35
16.24,66.81
16.245333,67.18
16.250667,67.38
16.256,67.5
16.261333,67.89
16.266667,68
16.272,67.95
16.277333,68.04
16.282667,68.17
16.288,68.13
16.293333,68.41
16.298667,68.46
16.304,68.58
16.309333,68.7
16.314667,68.67
16.32,68.77
16.325333,68.83
16.330667,68.91
16.336,68.84
16.341333,68.75
16.346667,68.69
16.352,68.7
16.357333,68.7
16.362667,68.64
16.368,68.57
16.373333,68.48
16.378667,68.36
16.384,68.28
16.389333,68.2
16.394667,68.06
16.4,67.99
16.405333,67.86
16.410667,67.75
16.416,67.68
16.421333,67.56
16.426667,67.47
16.432,67.41
16.437333,67.29
16.442667,67.2
16.448,67.12
16.453333,67.02
16.458667,66.94
16.464,66.94
16.469333,66.81
16.474667,66.75
16.48,66.75
16.485333,66.72
16.490667,66.65
16.496,66.56
16.501333,66.5
16.506667,66.53
16.512,66.49
16.517333,66.48
16.522667,66.54
16.528,66.56
16.533333,66.59
16.538667,66.64
16.544,66.72
16.549333,66.69
16.554667,66.65
16.56,66.65
16.565333,66.6
16.570667,66.65
16.576,66.55
16.581333,66.55
16.586667,66.56
16.592,66.68
16.597333,66.84
16.602667,66.89
16.608,67.04
16.613333,67.13
16.618667,67.17
16.624,67.24
16.629333,67.47
16.634667,67.65
16.64,67.92
16.645333,67.85
16.650667,68.08
16.656,68.1
16.661333,68.1
16.666667,68.25
16.672,68.26
16.677333,68.19
16.682667,68.22
16.688,68.17
16.693333,68.12
16.698667,68.08
16.704,68.06
16.709333,67.93
16.714667,67.82
16.72,67.71
16.725333,67.6
16.730667,67.5
16.736,67.49
16.741333,67.42
16.746667,67.43
16.752,67.43
16.757333,67.44
16.762667,67.38
16.768,67.28
16.773333,67.23
16.778667,67.23
16.784,67.24
16.789333,67.2
16.794667,67.17
16.8,67.21
16.805333,67.13
16.810667,67
16.816,66.95
16.821333,66.86
16.826667,66.8
16.832,66.7
16.837333,66.62
16.842667,66.65
16.848,66.57
16.853333,66.5
16.858667,66.53
16.864,66.66
16.869333,66.65
16.874667,66.62
16.88,66.57
16.885333,66.59
16.890667,66.6
16.896,66.59
16.901333,66.64
16.906667,66.65
16.912,66.71
16.917333,66.85
16.922667,66.96
16.928,66.87
16.933333,66.87
16.938667,66.79
16.944,66.71
16.949333,66.71
16.954667,66.81
16.96,66.88
16.965333,66.93
16.970667,67
16.976,66.94
16.981333,66.87
16.986667,66.86
16.992,66.8
16.997333,66.74
17.002667,66.65
17.008,66.6
17.013333,66.56
17.018667,66.53
17.024,66.41
17.029333,66.35
17.034667,66.25
17.04,66.24
17.045333,66.25
17.050667,66.26
17.056,66.3
17.061333,66.33
17.066667,66.48
17.072,66.54
17.077333,66.69
17.082667,66.75
17.088,66.68
17.093333,66.7
17.098667,66.73
17.104,66.87
17.109333,66.81
17.114667,66.83
17.12,66.78
17.125333,66.76
17.130667,66.73
17.136,66.81
17.141333,66.81
17.146667,66.85
17.152,66.79
17.157333,66.8
17.162667,66.72
17.168,66.69
17.173333,66.7
17.178667,66.62
17.184,66.59
17.189333,66.63
17.194667,66.58
17.2,66.58
17.205333,66.58
17.210667,66.58
17.216,66.52
17.221333,66.5
17.226667,66.49
17.232,66.46
17.237333,66.46
17.242667,66.37
17.248,66.36
17.253333,66.32
17.258667,66.43
17.264,66.47
17.269333,66.51
17.274667,66.52
17.28,66.53
17.285333,66.41
17.290667,66.47
17.296,66.6
17.301333,66.51
17.306667,66.67
17.312,66.66
17.317333,66.59
17.322667,66.58
17.328,66.52
17.333333,66.45
17.338667,66.56
17.344,66.63
17.349333,66.54
17.354667,66.5
17.36,66.54
17.365333,66.5
17.370667,66.51
17.376,66.45
17.381333,66.44
17.386667,66.35
17.392,66.37
17.397333,66.42
17.402667,66.35
17.408,66.27
17.413333,66.27
17.418667,66.18
17.424,66.17
17.429333,66.1
17.434667,66.19
17.44,66.1
17.445333,66.03
17.450667,65.98
17.456,65.97
17.461333,65.94
17.466667,65.96
17.472,65.93
17.477333,66
17.482667,65.99
17.488,65.95
17.493333,65.96
17.498667,65.88
17.504,65.84
17.509333,65.81
17.514667,65.75
17.52,65.78
17.525333,65.84
17.530667,65.84
17.536,65.99
17.541333,66.01
17.546667,66.08
17.552,66
17.557333,65.96
17.562667,65.92
17.568,66.05
17.573333,66.05
17.578667,66.17
17.584,66.09
17.589333,66.12
17.594667,66.14
17.6,69.4
17.605333,69.39
17.610667,69.45
17.616,69.4
17.621333,69.42
17.626667,69.46
17.632,69.41
17.637333,69.49
17.642667,69.44
17.648,69.47
17.653333,69.43
17.658667,69.36
17.664,69.28
17.669333,69.26
17.674667,69.19
17.68,69.14
17.685333,69.05
17.690667,68.99
17.696,68.92
17.701333,68.8
17.706667,68.74
17.712,68.67
17.717333,68.58
17.722667,68.46
17.728,68.39
17.733333,68.34
17.738667,68.23
17.744,68.11
17.749333,68.01
17.754667,67.93
17.76,67.85
17.765333,67.75
17.770667,67.67
17.776,67.59
17.781333,67.49
17.786667,67.44
17.792,67.5
17.797333,67.72
17.802667,68.08
17.808,68.32
17.813333,68.37
17.818667,68.4
17.824,68.43
17.829333,68.44
17.834667,68.47
17.84,68.65
17.845333,68.78
17.850667,68.8
17.856,68.83
17.861333,68.82
17.866667,68.79
17.872,68.76
17.877333,68.8
17.882667,68.9
17.888,68.88
17.893333,68.86
17.898667,68.84
17.904,68.94
17.909333,68.9
17.914667,68.86
17.92,69.06
17.925333,69.09
17.930667,69.03
17.936,68.99
17.941333,69
17.946667,68.95
17.952,68.96
17.957333,69.01
17.962667,69.01
17.968,68.95
17.973333,68.97
17.978667,68.99
17.984,69.03
17.989333,69.01
17.994667,69.1
18,69.12
18.005333,69.14
18.010667,69.16
18.016,69.19
18.021333,69.22
18.026667,69.17
18.032,69.14
18.037333,69.17
18.042667,69.16
18.048,69.12
18.053333,69.2
18.058667,69.4
18.064,69.51
18.069333,69.54
18.074667,69.54
18.08,69.59
18.085333,69.65
18.090667,69.64
18.096,69.73
18.101333,69.74
18.106667,69.72
18.112,69.79
18.117333,69.77
18.122667,69.85
18.128,69.95
18.133333,69.94
18.138667,69.96
18.144,69.99
18.149333,70.05
18.154667,69.95
18.16,69.95
18.165333,70
18.170667,69.97
18.176,69.93
18.181333,69.87
18.186667,69.83
18.192,69.77
18.197333,69.79
18.202667,69.89
18.208,69.93
18.213333,69.91
18.218667,69.86
18.224,69.83
18.229333,69.81
18.234667,69.76
18.24,69.8
18.245333,69.86
18.250667,69.82
18.256,70.11
18.261333,70.1
18.266667,70
18.272,69.94
18.277333,69.89
18.282667,69.86
18.288,69.8
18.293333,69.8
18.298667,69.84
18.304,69.96
18.309333,69.92
18.314667,69.97
18.32,69.94
18.325333,69.88
18.330667,69.79
18.336,69.71
18.341333,69.62
18.346667,69.53
18.352,69.45
18.357333,69.37
18.362667,69.38
18.368,69.34
18.373333,69.27
18.378667,69.21
18.384,69.15
18.389333,69.07
18.394667,68.95
18.4,68.88
18.405333,68.81
18.410667,68.8
18.416,68.82
18.421333,68.71
18.426667,68.64
18.432,68.54
18.437333,68.55
18.442667,68.56
18.448,68.54
18.453333,68.45
18.458667,68.42
18.464,68.39
18.469333,68.36
18.474667,68.35
18.48,68.66
18.485333,68.83
18.490667,69.25
18.496,69.6
18.501333,69.93
18.506667,70.27
18.512,70.36
18.517333,71.68
18.522667,71.81
18.528,71.83
18.533333,71.76
18.538667,71.68
18.544,71.6
18.549333,71.56
18.554667,71.51
18.56,71.4
18.565333,71.25
18.570667,71.19
18.576,71.12
18.581333,71.08
18.586667,70.99
18.592,70.86
18.597333,70.82
18.602667,70.75
18.608,70.72
18.613333,70.68
18.618667,70.6
18.624,70.54
18.629333,70.47
18.634667,70.43
18.64,70.35
18.645333,70.24
18.650667,70.16
18.656,70.16
18.661333,70.09
18.666667,70.05
18.672,69.95
18.677333,69.84
18.682667,69.79
18.688,69.71
18.693333,69.61
18.698667,69.5
18.704,69.42
18.709333,69.34
18.714667,69.3
18.72,69.25
18.725333,69.16
18.730667,69.05
18.736,68.99
18.741333,69.04
18.746667,68.98
18.752,68.92
18.757333,68.87
18.762667,68.87
18.768,68.87
18.773333,68.87
18.778667,68.86
18.784,68.83
18.789333,68.86
18.794667,68.84
18.8,68.91
18.805333,68.91
18.810667,68.96
18.816,68.89
18.821333,69.01
18.826667,68.99
18.832,69.01
18.837333,69.02
18.842667,69.02
18.848,69.08
18.853333,69.04
18.858667,68.99
18.864,68.97
18.869333,68.97
18.874667,68.97
18.88,68.9
18.885333,68.91
18.890667,68.86
18.896,68.83
18.901333,68.83
18.906667,68.76
18.912,68.74
18.917333,68.78
18.922667,68.71
18.928,68.71
18.933333,68.76
18.938667,68.76
18.944,68.82
18.949333,68.92
18.954667,69
18.96,68.94
18.965333,68.96
18.970667,68.95
18.976,68.91
18.981333,68.91
18.986667,68.94
18.992,68.96
18.997333,69.21
19.002667,69.33
19.008,69.37
19.013333,69.58
19.018667,69.52
19.024,69.53
19.029333,69.6
19.034667,69.58
19.04,69.61
19.045333,69.64
19.050667,69.69
19.056,69.62
19.061333,69.63
19.066667,69.74
19.072,69.8
19.077333,69.9
19.082667,69.87
19.088,69.87
19.093333,69.9
19.098667,69.87
19.104,69.97
19.109333,69.87
19.114667,69.87
19.12,69.88
19.125333,69.92
19.130667,69.96
19.136,70.04
19.141333,70.03
19.146667,70.04
19.152,70
19.157333,70.01
19.162667,69.92
19.168,69.9
19.173333,69.87
19.178667,70.05
19.184,70.01
19.189333,70.03
19.194667,70.02
19.2,70.15
19.205333,70.18
19.210667,70.17
19.216,70.25
19.221333,70.27
19.226667,70.25
19.232,70.33
19.237333,70.27
19.242667,70.3
19.248,70.32
19.253333,70.37
19.258667,70.5
19.264,70.55
19.269333,70.52
19.274667,70.54
19.28,70.5
19.285333,70.56
19.290667,70.49
19.296,70.51
19.301333,70.47
19.306667,70.4
19.312,70.46
19.317333,70.45
19.322667,70.7
19.328,70.68
19.333333,70.73
19.338667,70.77
19.344,71.13
19.349333,71.74
19.354667,72.6
19.36,73.41
19.365333,73.82
19.370667,74.17
19.376,74.53
19.381333,75.09
19.386667,75.36
19.392,75.56
19.397333,75.77
19.402667,75.95
19.408,76.11
19.413333,76.19
19.418667,76.16
19.424,76.09
19.429333,75.96
19.434667,75.9
19.44,75.8
19.445333,75.7
19.450667,75.59
19.456,75.47
19.461333,75.33
19.466667,75.23
19.472,75.39
19.477333,75.32
19.482667,75.21
19.488,75.1
19.493333,74.97
19.498667,74.85
19.504,74.83
19.509333,74.75
19.514667,74.65
19.52,74.63
19.525333,74.51
19.530667,74.5
19.536,74.51
19.541333,74.44
19.546667,74.4
19.552,74.36
19.557333,74.29
19.562667,74.37
19.568,74.31
19.573333,74.21
19.578667,74.27
19.584,74.23
19.589333,74.12
19.594667,74.12
19.6,74.21
19.605333,74.1
19.610667,73.98
19.616,73.87
19.621333,73.86
19.626667,73.8
19.632,73.72
19.637333,73.68
19.642667,73.61
19.648,73.49
19.653333,73.45
19.658667,73.36
19.664,73.21
19.669333,73.1
19.674667,73.02
19.68,72.91
19.685333,72.9
19.690667,72.84
19.696,72.74
19.701333,72.64
19.706667,72.54
19.712,72.46
19.717333,72.42
19.722667,72.32
19.728,72.33
19.733333,72.27
19.738667,72.25
19.744,72.19
19.749333,72.18
19.754667,72.28
19.76,72.29
19.765333,72.24
19.770667,72.29
19.776,72.37
19.781333,72.41
19.786667,72.37
19.792,72.45
19.797333,72.52
19.802667,72.42
19.808,72.34
19.813333,72.26
19.818667,72.25
19.824,72.28
19.829333,72.24
19.834667,72.23
19.84,72.19
19.845333,72.34
19.850667,72.42
19.856,72.51
19.861333,72.59
19.866667,72.53
19.872,72.58
19.877333,72.62
19.882667,72.64
19.888,72.59
19.893333,72.54
19.898667,72.47
19.904,72.48
19.909333,72.62
19.914667,72.78
19.92,72.82
19.925333,72.79
19.930667,72.91
19.936,72.97
19.941333,72.99
19.946667,72.95
19.952,72.89
19.957333,72.97
19.962667,72.88
19.968,72.83
19.973333,72.81
19.978667,72.92
19.984,73.08
19.989333,73.04
19.994667,73.16
20,73.18
20.005333,73.09
20.010667,73.04
20.016,73.28
20.021333,73.34
20.026667,73.29
20.032,73.35
20.037333,73.43
20.042667,73.46
20.048,73.38
20.053333,73.52
20.058667,73.49
20.064,73.78
20.069333,73.79
20.074667,73.88
20.08,73.88
20.085333,73.92
20.090667,74.02
20.096,74.06
20.101333,74.04
20.106667,74.04
20.112,74
20.117333,74.04
20.122667,74.08
20.128,74.03
20.133333,73.92
20.138667,73.92
20.144,73.97
20.149333,73.97
20.154667,73.96
20.16,73.9
20.165333,73.81
20.170667,73.75
20.176,73.71
20.181333,73.69
20.186667,73.74
20.192,73.67
20.197333,73.7
20.202667,73.68
20.208,73.69
20.213333,73.67
20.218667,73.63
20.224,73.68
20.229333,73.7
20.234667,73.62
20.24,73.59
20.245333,73.53
20.250667,73.56
20.256,73.58
20.261333,73.5
20.266667,73.49
20.272,73.45
20.277333,73.38
20.282667,73.37
20.288,73.27
20.293333,73.27
20.298667,73.39
20.304,73.53
20.309333,73.52
20.314667,73.46
20.32,73.49
20.325333,73.42
20.330667,73.48
20.336,73.55
20.341333,73.53
20.346667,73.62
20.352,73.59
20.357333,73.7
20.362667,73.8
20.368,73.78
20.373333,73.69
20.378667,73.82
20.384,73.83
20.389333,73.93
20.394667,73.93
20.4,73.9
20.405333,73.9
20.410667,73.93
20.416,73.98
20.421333,73.99
20.426667,74.06
20.432,74.07
20.437333,74.01
20.442667,74.22
20.448,74.3
20.453333,74.4
20.458667,74.43
20.464,74.43
20.469333,74.4
20.474667,74.39
20.48,74.43
20.485333,74.39
20.490667,74.43
20.496,74.47
20.501333,74.45
20.506667,74.66
20.512,74.71
20.517333,74.72
20.522667,74.67
20.528,74.64
20.533333,74.77
20.538667,74.71
20.544,74.64
20.549333,74.55
20.554667,74.47
20.56,74.49
20.565333,74.42
20.570667,74.76
20.576,74.71
20.581333,74.72
20.586667,74.69
20.592,74.69
20.597333,74.7
20.602667,74.67
20.608,74.66
20.613333,74.66
20.618667,74.64
20.624,74.75
20.629333,74.67
20.634667,74.7
20.64,74.75
20.645333,74.68
20.650667,74.64
20.656,74.64
20.661333,74.72
20.666667,74.74
20.672,74.67
20.677333,74.67
20.682667,74.66
20.688,74.69
20.693333,74.7
20.698667,74.7
20.704,74.67
20.709333,74.69
20.714667,74.59
20.72,74.67
20.725333,74.69
20.730667,74.68
20.736,74.7
20.741333,74.67
20.746667,74.59
20.752,74.54
20.757333,74.51
20.762667,74.54
20.768,74.53
20.773333,74.48
20.778667,74.37
20.784,74.28
20.789333,74.22
20.794667,74.15
20.8,74.12
20.805333,74.09
20.810667,74.01
20.816,73.98
20.821333,73.92
20.826667,73.88
20.832,73.82
20.837333,73.84
20.842667,73.72
20.848,73.67
20.853333,73.67
20.858667,73.6
20.864,73.6
20.869333,73.54
20.874667,73.45
20.88,73.35
20.885333,73.25
20.890667,73.28
20.896,73.3
20.901333,73.3
20.906667,73.37
20.912,73.33
20.917333,73.32
20.922667,73.23
20.928,73.24
20.933333,73.25
20.938667,73.19
20.944,73.14
20.949333,73.14
20.954667,73.07
20.96,72.99
20.965333,72.97
20.970667,72.92
20.976,72.85
20.981333,72.83
20.986667,72.74
20.992,72.67
20.997333,72.68
21.002667,72.65
21.008,72.58
21.013333,72.55
21.018667,72.48
21.024,72.57
21.029333,72.51
21.034667,72.42
21.04,72.36
21.045333,72.36
21.050667,72.28
21.056,72.21
21.061333,72.16
21.066667,72.16
21.072,72.09
21.077333,72.06
21.082667,72.06
21.088,72.01
21.093333,72.01
21.098667,72.03
21.104,71.99
21.109333,71.92
21.114667,71.84
21.12,71.86
21.125333,71.98
21.130667,72.06
21.136,72.21
21.141333,72.19
21.146667,72.19
21.152,72.27
21.157333,72.31
21.162667,72.22
21.168,72.22
21.173333,72.24
21.178667,72.2
21.184,72.14
21.189333,72.12
21.194667,72.1
21.2,72.16
21.205333,72.15
21.210667,72.15
21.216,72.26
21.221333,72.22
21.226667,72.21
21.232,72.19
21.237333,72.23
21.242667,72.17
21.248,72.25
21.253333,72.19
21.258667,72.18
21.264,72.18
21.269333,72.3
21.274667,72.3
21.28,72.31
21.285333,72.29
21.290667,72.23
21.296,72.2
21.301333,72.39
21.306667,72.35
21.312,72.4
21.317333,72.44
21.322667,72.4
21.328,72.34
21.333333,72.42
21.338667,72.34
21.344,72.31
21.349333,72.28
21.354667,72.25
21.36,72.2
21.365333,72.2
21.370667,72.15
21.376,72.14
21.381333,72.08
21.386667,72.04
21.392,72.07
21.397333,72.02
21.402667,72.17
21.408,72.09
21.413333,72.02
21.418667,71.96
21.424,71.95
21.429333,71.94
21.434667,71.97
21.44,71.93
21.445333,71.95
21.450667,71.85
21.456,71.84
21.461333,71.84
21.466667,71.74
21.472,71.8
21.477333,71.74
21.482667,71.7
21.488,71.69
21.493333,71.72
21.498667,71.7
21.504,71.67
21.509333,71.72
21.514667,71.75
21.52,71.71
21.525333,71.71
21.530667,71.72
21.536,71.76
21.541333,71.83
21.546667,71.83
21.552,71.86
21.557333,71.78
21.562667,71.91
21.568,72.01
21.573333,72.04
21.578667,72.03
21.584,72
21.589333,72.01
21.594667,71.96
21.6,71.94
21.605333,71.91
21.610667,71.89
21.616,71.82
21.621333,71.78
21.626667,71.84
21.632,71.78
21.637333,71.76
21.642667,71.79
21.648,71.7
21.653333,71.63
21.658667,71.52
21.664,71.51
21.669333,71.51
21.674667,71.45
21.68,71.42
21.685333,71.4
21.690667,71.35
21.696,71.31
21.701333,71.26
21.706667,71.27
21.712,71.2
21.717333,71.26
21.722667,71.18
21.728,71.26
21.733333,71.23
21.738667,71.25
21.744,71.27
21.749333,71.21
21.754667,71.23
21.76,71.18
21.765333,71.17
21.770667,71.15
21.776,71.1
21.781333,71.08
21.786667,71.11
21.792,71.02
21.797333,70.95
21.802667,70.86
21.808,70.78
21.813333,70.8
21.818667,70.85
21.824,70.88
21.829333,70.91
21.834667,70.99
21.84,70.95
21.845333,70.91
21.850667,70.81
21.856,70.84
21.861333,70.75
21.866667,70.78
21.872,70.82
21.877333,70.82
21.882667,70.71
21.888,70.61
21.893333,70.58
21.898667,70.53
21.904,70.47
21.909333,70.46
21.914667,70.39
21.92,70.41
21.925333,70.34
21.930667,70.29
21.936,70.33
21.941333,70.33
21.946667,70.29
21.952,70.2
21.957333,70.21
21.962667,70.27
21.968,70.31
21.973333,70.39
21.978667,70.3
21.984,70.44
21.989333,70.44
21.994667,70.39
22,70.5
22.005333,70.43
22.010667,70.55
22.016,70.48
22.021333,70.5
22.026667,70.46
22.032,70.63
22.037333,70.63
22.042667,70.63
22.048,70.56
22.053333,70.59
22.058667,70.55
22.064,70.58
22.069333,70.62
22.074667,70.54
22.08,70.62
22.085333,70.6
22.090667,70.7
22.096,70.67
22.101333,70.67
22.106667,70.83
22.112,70.8
22.117333,70.95
22.122667,70.99
22.128,70.9
22.133333,70.8
22.138667,70.76
22.144,70.72
22.149333,70.73
22.154667,70.64
22.16,70.68
22.165333,70.59
22.170667,70.56
22.176,70.53
22.181333,70.53
22.186667,70.46
22.192,70.43
22.197333,70.4
22.202667,70.37
22.208,70.35
22.213333,70.35
22.218667,70.31
22.224,70.32
22.229333,70.3
22.234667,70.3
22.24,70.33
22.245333,70.52
22.250667,70.59
22.256,70.63
22.261333,70.61
22.266667,70.69
22.272,70.7
22.277333,70.76
22.282667,70.75
22.288,70.79
22.293333,70.79
22.298667,70.76
22.304,70.65
22.309333,70.68
22.314667,70.7
22.32,70.71
22.325333,70.79
22.330667,70.81
22.336,70.8
22.341333,70.79
22.346667,70.76
22.352,70.79
22.357333,70.76
22.362667,70.74
22.368,70.71
22.373333,70.83
22.378667,70.82
22.384,70.83
22.389333,70.82
22.394667,70.87
22.4,70.86
22.405333,70.81
22.410667,70.84
22.416,70.82
22.421333,70.85
22.426667,70.87
22.432,70.88
22.437333,70.84
22.442667,70.85
22.448,70.77
22.453333,70.8
22.458667,70.75
22.464,70.68
22.469333,70.63
22.474667,70.59
22.48,70.55
22.485333,70.54
22.490667,70.55
22.496,70.53
22.501333,70.54
22.506667,70.52
22.512,70.54
22.517333,70.6
22.522667,70.58
22.528,70.52
22.533333,70.53
22.538667,70.47
22.544,70.43
22.549333,70.34
22.554667,70.28
22.56,70.32
22.565333,70.3
22.570667,70.39
22.576,70.33
22.581333,70.3
22.586667,70.28
22.592,70.32
22.597333,70.23
22.602667,70.24
22.608,70.21
22.613333,70.17
22.618667,70.19
22.624,70.22
22.629333,70.22
22.634667,70.26
22.64,70.22
22.645333,70.41
22.650667,70.34
22.656,70.29
22.661333,70.26
22.666667,70.2
22.672,70.23
22.677333,70.21
22.682667,70.19
22.688,70.14
22.693333,70.16
22.698667,70.2
22.704,70.18
22.709333,70.16
22.714667,70.19
22.72,70.16
22.725333,70.13
22.730667,70.03
22.736,70.07
22.741333,70.14
22.746667,70.05
22.752,70.01
22.757333,69.92
22.762667,69.94
22.768,69.96
22.773333,69.91
22.778667,69.91
22.784,69.83
22.789333,69.75
22.794667,69.67
22.8,69.8
22.805333,69.79
22.810667,69.84
22.816,69.82
22.821333,69.83
22.826667,69.74
22.832,69.76
22.837333,69.71
22.842667,69.7
22.848,69.74
22.853333,69.76
22.858667,69.76
22.864,69.87
22.869333,69.97
22.874667,69.91
22.88,69.92
22.885333,69.83
22.890667,69.82
22.896,69.82
22.901333,69.72
22.906667,69.69
22.912,69.61
22.917333,69.72
22.922667,69.67
22.928,69.59
22.933333,69.71
22.938667,69.68
22.944,69.58
22.949333,69.55
22.954667,69.59
22.96,69.56
22.965333,69.61
22.970667,69.84
22.976,69.79
22.981333,69.71
22.986667,69.68
22.992,69.63
22.997333,69.6
23.002667,69.53
23.008,69.5
23.013333,69.6
23.018667,69.56
23.024,69.54
23.029333,69.59
23.034667,69.59
23.04,69.69
23.045333,69.69
23.050667,69.81
23.056,69.81
23.061333,69.88
23.066667,69.89
23.072,69.9
23.077333,69.91
23.082667,70.01
23.088,69.99
23.093333,70
23.098667,70.05
23.104,70.07
23.109333,70.07
23.114667,70.01
23.12,70.05
23.125333,70.21
23.130667,70.24
23.136,70.21
23.141333,70.17
23.146667,70.31
23.152,70.28
23.157333,70.24
23.162667,70.16
23.168,70.05
23.173333,70.04
23.178667,69.99
23.184,70.03
23.189333,70.02
23.194667,69.96
23.2,69.99
23.205333,70.09
23.210667,70.06
23.216,69.96
23.221333,69.92
23.226667,70.06
23.232,70.04
23.237333,70
23.242667,69.98
23.248,69.98
23.253333,70.05
23.258667,69.99
23.264,69.94
23.269333,69.91
23.274667,69.87
23.28,69.86
23.285333,69.92
23.290667,69.94
23.296,70.08
23.301333,70.09
23.306667,70.22
23.312,70.17
23.317333,70.07
23.322667,70.09
23.328,70.09
23.333333,70.11
23.338667,70.17
23.344,70.09
23.349333,70.12
23.354667,70.06
23.36,70.04
23.365333,69.98
23.370667,69.94
23.376,69.91
23.381333,69.93
23.386667,69.85
23.392,69.83
23.397333,69.78
23.402667,69.73
23.408,69.66
23.413333,69.56
23.418667,69.72
23.424,69.79
23.429333,69.78
23.434667,69.92
23.44,69.97
23.445333,69.96
23.450667,70
23.456,69.96
23.461333,69.96
23.466667,69.94
23.472,69.87
23.477333,69.86
23.482667,69.87
23.488,69.92
23.493333,70.05
23.498667,70.07
23.504,70.18
23.509333,70.19
23.514667,70.21
23.52,70.18
23.525333,70.18
23.530667,70.16
23.536,70.17
23.541333,70.17
23.546667,70.19
23.552,70.21
23.557333,70.24
23.562667,70.32
23.568,70.39
23.573333,70.48
23.578667,70.49
23.584,70.4
23.589333,70.34
23.594667,70.34
23.6,70.35
23.605333,70.39
23.610667,70.41
23.616,70.53
23.621333,70.53
23.626667,70.76
23.632,70.74
23.637333,70.7
23.642667,70.85
23.648,70.92
23.653333,71.1
23.658667,71.21
23.664,71.21
23.669333,71.27
23.674667,71.25
23.68,71.38
23.685333,71.38
23.690667,71.56
23.696,71.57
23.701333,71.51
23.706667,71.62
23.712,71.56
23.717333,71.62
23.722667,71.6
23.728,71.57
23.733333,71.56
23.738667,71.52
23.744,71.55
23.749333,71.63
23.754667,71.63
23.76,71.64
23.765333,71.64
23.770667,71.64
23.776,71.65
23.781333,71.67
23.786667,71.62
23.792,71.57
23.797333,71.51
23.802667,71.46
23.808,71.47
23.813333,71.48
23.818667,71.47
23.824,71.4
23.829333,71.41
23.834667,71.43
23.84,71.5
23.845333,71.44
23.850667,71.36
23.856,71.29
23.861333,71.4
23.866667,71.4
23.872,71.34
23.877333,71.32
23.882667,71.34
23.888,71.31
23.893333,71.32
23.898667,71.29
23.904,71.24
23.909333,71.18
23.914667,71.16
23.92,71.21
23.925333,71.18
23.930667,71.17
23.936,71.1
23.941333,71.17
23.946667,71.09
23.952,71.05
23.957333,71.05
23.962667,70.97
23.968,70.99
23.973333,71
23.978667,70.97
23.984,71.05
23.989333,71.01
23.994667,70.94
24,70.88
24.005333,70.78
24.010667,70.84
24.016,70.78
24.021333,70.76
24.026667,70.7
24.032,70.66
24.037333,70.67
24.042667,70.65
24.048,70.57
24.053333,70.49
24.058667,70.47
24.064,70.45
24.069333,70.39
24.074667,70.34
24.08,70.38
24.085333,70.36
24.090667,70.3
24.096,70.26
24.101333,70.21
24.106667,70.18
24.112,70.1
24.117333,70.06
24.122667,70.01
24.128,69.98
24.133333,70.01
24.138667,70.01
24.144,70.03
24.149333,70
24.154667,69.95
24.16,69.95
24.165333,69.96
24.170667,69.98
24.176,69.95
24.181333,69.96
24.186667,69.89
24.192,69.85
24.197333,69.79
24.202667,69.74
24.208,69.7
24.213333,69.7
24.218667,69.6
24.224,69.56
24.229333,69.63
24.234667,69.6
24.24,69.56
24.245333,69.58
24.250667,69.56
24.256,69.62
24.261333,69.58
24.266667,69.53
24.272,69.5
24.277333,69.56
24.282667,69.55
24.288,69.69
24.293333,69.71
24.298667,69.66
24.304,69.75
24.309333,69.92
24.314667,69.96
24.32,69.95
24.325333,69.96
24.330667,70.23
24.336,70.4
24.341333,70.45
24.346667,70.51
24.352,70.63
24.357333,70.79
24.362667,70.94
24.368,71.02
24.373333,71.06
24.378667,71.2
24.384,71.29
24.389333,71.41
24.394667,71.37
24.4,71.33
24.405333,71.45
24.410667,71.5
24.416,71.44
24.421333,71.42
24.426667,71.4
24.432,71.31
24.437333,71.21
24.442667,71.18
24.448,71.11
24.453333,71.05
24.458667,70.96
24.464,70.91
24.469333,70.85
24.474667,70.78
24.48,70.75
24.485333,70.77
24.490667,70.74
24.496,70.73
24.501333,70.82
24.506667,70.89
24.512,70.97
24.517333,71.09
24.522667,71.42
24.528,71.5
24.533333,71.65
24.538667,71.66
24.544,71.59
24.549333,71.5
24.554667,71.51
24.56,71.55
24.565333,71.52
24.570667,71.45
24.576,71.38
24.581333,71.34
24.586667,71.23
24.592,71.18
24.597333,71.1
24.602667,71.07
24.608,70.96
24.613333,70.98
24.618667,70.91
24.624,70.84
24.629333,70.74
24.634667,70.67
24.64,70.63
24.645333,70.61
24.650667,70.53
24.656,70.51
24.661333,70.54
24.666667,70.43
24.672,70.36
24.677333,70.3
24.682667,70.2
24.688,70.1
24.693333,70.08
24.698667,70.06
24.704,70.01
24.709333,69.95
24.714667,69.92
24.72,69.86
24.725333,69.84
24.730667,69.87
24.736,69.81
24.741333,69.76
24.746667,69.92
24.752,69.97
24.757333,69.92
24.762667,69.82
24.768,69.8
24.773333,69.82
24.778667,69.88
24.784,69.88
24.789333,69.87
24.794667,69.89
24.8,69.95
24.805333,69.96
24.810667,70.1
24.816,70.01
24.821333,70.07
24.826667,70.09
24.832,70.03
24.837333,70.08
24.842667,70.07
24.848,70.11
24.853333,70.1
24.858667,70.1
24.864,70.06
24.869333,70.08
24.874667,69.97
24.88,69.99
24.885333,69.96
24.890667,69.98
24.896,69.99
24.901333,69.95
24.906667,69.85
24.912,69.85
24.917333,69.92
24.922667,69.86
24.928,69.86
24.933333,69.84
24.938667,69.86
24.944,69.85
24.949333,69.82
24.954667,69.74
24.96,69.72
24.965333,69.7
24.970667,69.7
24.976,69.74
24.981333,69.67
24.986667,69.79
24.992,69.79
24.997333,69.76
25.002667,69.77
25.008,69.71
25.013333,69.64
25.018667,69.66
25.024,69.69
25.029333,69.68
25.034667,69.71
25.04,69.67
25.045333,69.74
25.050667,69.86
25.056,69.94
25.061333,69.9
25.066667,69.9
25.072,69.91
25.077333,70.04
25.082667,70.15
25.088,70.13
25.093333,70.16
25.098667,70.25
25.104,70.27
25.109333,70.28
25.114667,70.29
25.12,70.3
25.125333,70.28
25.130667,70.32
25.136,70.21
25.141333,70.21
25.146667,70.21
25.152,70.15
25.157333,70.18
25.162667,70.22
25.168,70.24
25.173333,70.18
25.178667,70.18
25.184,70.19
25.189333,70.18
25.194667,70.23
25.2,70.21
25.205333,70.27
25.210667,70.27
25.216,70.34
25.221333,70.27
25.226667,70.31
25.232,70.32
25.237333,70.26
25.242667,70.29
25.248,70.29
25.253333,70.27
25.258667,70.25
25.264,70.34
25.269333,70.36
25.274667,70.28
25.28,70.22
25.285333,70.24
25.290667,70.26
25.296,70.25
25.301333,70.29
25.306667,70.32
25.312,70.22
25.317333,70.21
25.322667,70.25
25.328,70.18
25.333333,70.14
25.338667,70.11
25.344,70.07
25.349333,70.1
25.354667,70.06
25.36,69.99
25.365333,70.04
25.370667,70.05
25.376,69.98
25.381333,69.99
25.386667,69.93
25.392,69.91
25.397333,69.94
25.402667,69.99
25.408,70.03
25.413333,70.04
25.418667,69.97
25.424,69.94
25.429333,69.99
25.434667,69.98
25.44,69.98
25.445333,69.96
25.450667,69.88
25.456,69.92
25.461333,69.95
25.466667,69.89
25.472,69.94
25.477333,69.92
25.482667,69.88
25.488,69.89
25.493333,69.82
25.498667,69.78
25.504,69.7
25.509333,69.71
25.514667,69.65
25.52,69.56
25.525333,69.51
25.530667,69.53
25.536,69.48
25.541333,69.44
25.546667,69.42
25.552,69.37
25.557333,69.34
25.562667,69.3
25.568,69.25
25.573333,69.21
25.578667,69.19
25.584,69.13
25.589333,69.09
25.594667,69.05
25.6,69.01
25.605333,69.01
25.610667,68.98
25.616,68.94
25.621333,68.91
25.626667,69.05
25.632,69.01
25.637333,69.07
25.642667,69.07
25.648,69.14
25.653333,69.15
25.658667,69.25
25.664,69.25
25.669333,69.26
25.674667,69.38
25.68,69.42
25.685333,69.52
25.690667,69.54
25.696,69.58
25.701333,69.58
25.706667,69.52
25.712,69.59
25.717333,69.59
25.722667,69.55
25.728,69.49
25.733333,69.51
25.738667,69.54
25.744,69.6
25.749333,69.58
25.754667,69.56
25.76,69.55
25.765333,69.5
25.770667,69.51
25.776,69.54
25.781333,69.53
25.786667,69.48
25.792,69.47
25.797333,69.41
25.802667,69.35
25.808,69.35
25.813333,69.32
25.818667,69.41
25.824,69.36
25.829333,69.26
25.834667,69.22
25.84,69.31
25.845333,69.33
25.850667,69.34
25.856,69.37
25.861333,69.38
25.866667,69.41
25.872,69.75
25.877333,69.89
25.882667,69.86
25.888,69.81
25.893333,69.84
25.898667,69.86
25.904,69.91
25.909333,69.91
25.914667,69.86
25.92,69.8
25.925333,69.73
25.930667,69.68
25.936,69.59
25.941333,69.52
25.946667,69.44
25.952,69.36
25.957333,69.28
25.962667,69.3
25.968,69.19
25.973333,69.09
25.978667,69.05
25.984,68.97
25.989333,68.99
25.994667,68.98
26,69
26.005333,69.04
26.010667,69.02
26.016,69.03
26.021333,69.13
26.026667,69.08
26.032,69.02
26.037333,68.96
26.042667,68.86
26.048,68.9
26.053333,69.12
26.058667,69.07
26.064,68.99
26.069333,68.93
26.074667,68.94
26.08,69.07
26.085333,69.17
26.090667,69.25
26.096,69.22
26.101333,69.14
26.106667,69.12
26.112,69.37
26.117333,69.52
26.122667,69.6
26.128,69.66
26.133333,69.91
26.138667,70.18
26.144,70.4
26.149333,70.55
26.154667,70.62
26.16,70.87
26.165333,71.09
26.170667,71.21
26.176,71.21
26.181333,71.26
26.186667,71.23
26.192,71.18
26.197333,71.13
26.202667,71.1
26.208,71.17
26.213333,71.22
26.218667,71.17
26.224,71.18
26.229333,71.16
26.234667,71.11
26.24,71.16
26.245333,71.17
26.250667,71.15
26.256,71.12
26.261333,71.28
26.266667,71.3
26.272,71.19
26.277333,71.18
26.282667,71.16
26.288,71.27
26.293333,71.33
26.298667,71.41
26.304,71.38
26.309333,71.31
26.314667,71.34
26.32,71.26
26.325333,71.24
26.330667,71.14
26.336,71.18
26.341333,71.18
26.346667,71.5
26.352,71.53
26.357333,71.58
26.362667,71.56
26.368,71.8
26.373333,71.86
26.378667,71.87
26.384,71.94
26.389333,72
26.394667,72.17
26.4,72.09
26.405333,72.17
26.410667,72.23
26.416,72.22
26.421333,72.35
26.426667,72.4
26.432,72.31
26.437333,72.41
26.442667,72.48
26.448,72.47
26.453333,72.44
26.458667,72.41
26.464,72.39
26.469333,72.37
26.474667,72.26
26.48,72.52
26.485333,72.45
26.490667,72.38
26.496,72.39
26.501333,72.45
26.506667,72.47
26.512,72.44
26.517333,72.35
26.522667,72.32
26.528,72.57
26.533333,72.71
26.538667,72.65
26.544,72.56
26.549333,72.5
26.554667,72.47
26.56,72.64
26.565333,72.62
26.570667,72.63
26.576,72.72
26.581333,72.74
26.586667,72.77
26.592,72.69
26.597333,73.18
26.602667,73.35
26.608,73.29
26.613333,73.2
26.618667,73.12
26.624,73.04
26.629333,72.98
26.634667,72.92
26.64,72.9
26.645333,72.95
26.650667,73.11
26.656,73.06
26.661333,72.96
26.666667,72.97
26.672,73.05
26.677333,73
26.682667,72.93
26.688,72.93
26.693333,73.07
26.698667,73.01
26.704,72.94
26.709333,72.97
26.714667,73.04
26.72,73.04
26.725333,73.1
26.730667,73
26.736,73.18
26.741333,73.12
26.746667,73.15
26.752,73.07
26.757333,73.22
26.762667,73.4
26.768,73.43
26.773333,73.43
26.778667,73.56
26.784,73.53
26.789333,73.47
26.794667,73.49
26.8,73.7
26.805333,73.83
26.810667,73.72
26.816,73.69
26.821333,73.71
26.826667,73.76
26.832,73.74
26.837333,73.67
26.842667,73.66
26.848,73.81
26.853333,73.8
26.858667,73.83
26.864,73.73
26.869333,73.7
26.874667,73.61
26.88,73.57
26.885333,73.59
26.890667,73.96
26.896,73.88
26.901333,73.82
26.906667,73.75
26.912,74.04
26.917333,73.99
26.922667,73.92
26.928,74
26.933333,74.15
26.938667,74.14
26.944,74.11
26.949333,74.22
26.954667,74.31
26.96,74.3
26.965333,74.33
26.970667,74.39
26.976,74.32
26.981333,74.25
26.986667,74.22
26.992,74.31
26.997333,74.36
27.002667,74.37
27.008,74.26
27.013333,74.51
27.018667,74.49
27.024,74.46
27.029333,74.36
27.034667,74.54
27.04,74.58
27.045333,74.58
27.050667,74.59
27.056,74.67
27.061333,74.54
27.066667,74.45
27.072,74.41
27.077333,74.69
27.082667,74.73
27.088,74.61
27.093333,74.76
27.098667,74.79
27.104,74.71
27.109333,74.68
27.114667,74.92
27.12,74.99
27.125333,74.89
27.130667,74.88
27.136,75.06
27.141333,75.06
27.146667,74.97
27.152,74.96
27.157333,74.93
27.162667,74.95
27.168,74.88
27.173333,75.04
27.178667,74.99
27.184,74.9
27.189333,74.88
27.194667,75.03
27.2,75.01
27.205333,74.98
27.210667,75.1
27.216,75.11
27.221333,75.04
27.226667,74.92
27.232,75.09
27.237333,75
27.242667,74.88
27.248,75.03
27.253333,75.29
27.258667,75.33
27.264,75.24
27.269333,75.37
27.274667,75.61
27.28,75.59
27.285333,75.51
27.290667,75.9
27.296,75.91
27.301333,75.8
27.306667,75.89
27.312,75.96
27.317333,75.86
27.322667,75.79
27.328,76.05
27.333333,76
27.338667,76
27.344,76.04
27.349333,76.15
27.354667,76.06
27.36,76.01
27.365333,76.34
27.370667,76.36
27.376,76.29
27.381333,76.3
27.386667,76.5
27.392,76.53
27.397333,76.43
27.402667,76.66
27.408,76.83
27.413333,76.74
27.418667,76.78
27.424,76.75
27.429333,76.62
27.434667,76.52
27.44,76.44
27.445333,76.38
27.450667,76.25
27.456,76.13
27.461333,76.11
27.466667,76.04
27.472,75.91
27.477333,76.08
27.482667,76.21
27.488,76.17
27.493333,76.09
27.498667,76.35
27.504,76.37
27.509333,76.3
27.514667,76.53
27.52,76.78
27.525333,76.78
27.530667,76.72
27.536,76.95
27.541333,76.99
27.546667,76.92
27.552,77.01
27.557333,77.09
27.562667,77.09
27.568,77.12
27.573333,77.26
27.578667,77.24
27.584,77.18
27.589333,77.24
27.594667,77.43
27.6,77.33
27.605333,77.41
27.610667,77.54
27.616,77.64
27.621333,77.54
27.626667,77.7
27.632,77.75
27.637333,77.68
27.642667,77.76
27.648,77.84
27.653333,77.75
27.658667,77.64
27.664,77.68
27.669333,77.7
27.674667,77.6
27.68,77.73
27.685333,77.81
27.690667,77.7
27.696,77.58
27.701333,77.72
27.706667,77.62
27.712,77.53
27.717333,77.65
27.722667,77.65
27.728,77.69
27.733333,77.63
27.738667,77.72
27.744,77.74
27.749333,77.67
27.754667,77.84
27.76,77.92
27.765333,77.81
27.770667,77.73
27.776,77.95
27.781333,77.87
27.786667,77.74
27.792,77.83
27.797333,77.84
27.802667,77.73
27.808,77.7
27.813333,77.9
27.818667,77.83
27.824,77.73
27.829333,77.83
27.834667,77.86
27.84,77.76
27.845333,77.72
27.850667,77.68
27.856,77.63
27.861333,77.51
27.866667,77.82
27.872,77.76
27.877333,77.73
27.882667,77.8
27.888,77.88
27.893333,77.85
27.898667,77.79
27.904,77.92
27.909333,77.92
27.914667,77.91
27.92,77.9
27.925333,77.98
27.930667,77.92
27.936,77.89
27.941333,78.23
27.946667,78.1
27.952,78.12
27.957333,78.16
27.962667,78.16
27.968,78.08
27.973333,78.03
27.978667,78.1
27.984,77.96
27.989333,77.88
27.994667,78.03
28,77.98
28.005333,77.9
28.010667,78.05
28.016,78.03
28.021333,77.92
28.026667,77.8
28.032,77.97
28.037333,77.93
28.042667,77.8
28.048,77.93
28.053333,78.05
28.058667,77.91
28.064,77.79
28.069333,78.06
28.074667,77.98
28.08,77.84
28.085333,77.92
28.090667,77.97
28.096,77.85
28.101333,77.75
28.106667,77.97
28.112,77.87
28.117333,77.76
28.122667,77.96
28.128,78.05
28.133333,77.92
28.138667,77.82
28.144,77.91
28.149333,77.81
28.154667,77.69
28.16,77.83
28.165333,77.75
28.170667,77.6
28.176,77.52
28.181333,77.89
28.186667,77.84
28.192,77.73
28.197333,78.12
28.202667,78.16
28.208,78.11
28.213333,78.02
28.218667,78.13
28.224,78.03
28.229333,77.94
28.234667,77.98
28.24,77.95
28.245333,77.84
28.250667,77.78
28.256,77.9
28.261333,77.86
28.266667,77.73
28.272,77.74
28.277333,78
28.282667,77.92
28.288,77.82
28.293333,77.89
28.298667,77.9
28.304,77.84
28.309333,77.73
28.314667,77.87
28.32,77.87
28.325333,77.74
28.330667,77.79
28.336,77.76
28.341333,77.69
28.346667,77.59
28.352,77.68
28.357333,77.64
28.362667,77.54
28.368,77.49
28.373333,77.61
28.378667,77.55
28.384,77.48
28.389333,77.62
28.394667,77.55
28.4,77.44
28.405333,77.37
28.410667,77.46
28.416,77.35
28.421333,77.22
28.426667,77.16
28.432,77.17
28.437333,77.09
28.442667,76.96
28.448,76.99
28.453333,76.98
28.458667,76.94
28.464,76.84
28.469333,77
28.474667,76.95
28.48,76.87
28.485333,76.77
28.490667,76.93
28.496,76.97
28.501333,76.87
28.506667,76.78
28.512,76.89
28.517333,76.82
28.522667,76.75
28.528,76.69
28.533333,76.73
28.538667,76.64
28.544,76.54
28.549333,76.45
28.554667,76.35
28.56,76.25
28.565333,76.16
28.570667,76.1
28.576,76.03
28.581333,75.91
28.586667,75.85
28.592,75.79
28.597333,75.72
28.602667,75.6
28.608,75.48
28.613333,75.52
28.618667,75.55
28.624,75.45
28.629333,75.4
28.634667,75.33
28.64,75.35
28.645333,75.24
28.650667,75.14
28.656,75.16
28.661333,75.19
28.666667,75.06
28.672,75
28.677333,75.03
28.682667,75.13
28.688,74.98
28.693333,74.9
28.698667,74.98
28.704,75.15
28.709333,75.04
28.714667,74.96
28.72,75.08
28.725333,75.31
28.730667,75.18
28.736,75.09
28.741333,75.06
28.746667,75.11
28.752,75
28.757333,74.92
28.762667,74.93
28.768,75.04
28.773333,75.02
28.778667,74.9
28.784,74.85
28.789333,75.08
28.794667,75.02
28.8,74.94
28.805333,74.88
28.810667,75.1
28.816,75.1
28.821333,75.02
28.826667,74.89
28.832,75.14
28.837333,75.15
28.842667,75.1
28.848,75.01
28.853333,75.04
28.858667,75.27
28.864,75.17
28.869333,75.07
28.874667,75.05
28.88,75.37
28.885333,75.39
28.890667,75.29
28.896,75.2
28.901333,75.45
28.906667,75.48
28.912,75.53
28.917333,75.43
28.922667,75.51
28.928,75.58
28.933333,75.54
28.938667,75.46
28.944,75.41
28.949333,75.53
28.954667,75.44
28.96,75.34
28.965333,75.22
28.970667,75.45
28.976,75.37
28.981333,75.26
28.986667,75.14
28.992,75.17
28.997333,75.44
29.002667,75.32
29.008,75.21
29.013333,75.14
29.018667,75.33
29.024,75.29
29.029333,75.17
29.034667,75.08
29.04,75.2
29.045333,75.32
29.050667,75.23
29.056,75.13
29.061333,75.16
29.066667,75.56
29.072,75.5
29.077333,75.38
29.082667,75.36
29.088,75.79
29.093333,75.76
29.098667,75.64
29.104,75.54
29.109333,75.6
29.114667,75.8
29.12,75.68
29.125333,75.63
29.130667,75.51
29.136,75.76
29.141333,75.71
29.146667,75.58
29.152,75.46
29.157333,75.41
29.162667,75.56
29.168,75.44
29.173333,75.35
29.178667,75.28
29.184,75.51
29.189333,75.48
29.194667,75.41
29.2,75.3
29.205333,75.39
29.210667,75.6
29.216,75.56
29.221333,75.51
29.226667,75.44
29.232,75.72
29.237333,75.72
29.242667,75.69
29.248,75.6
29.253333,75.67
29.258667,75.81
29.264,75.77
29.269333,75.73
29.274667,75.7
29.28,75.74
29.285333,75.86
29.290667,75.78
29.296,75.66
29.301333,75.64
29.306667,75.9
29.312,75.99
29.317333,75.99
29.322667,75.92
29.328,76.01
29.333333,76.25
29.338667,76.22
29.344,76.2
29.349333,76.15
29.354667,76.61
29.36,76.6
29.365333,76.53
29.370667,76.46
29.376,76.5
29.381333,76.7
29.386667,76.62
29.392,76.49
29.397333,76.38
29.402667,76.44
29.408,76.59
29.413333,76.46
29.418667,76.34
29.424,76.24
29.429333,76.34
29.434667,76.38
29.44,76.3
29.445333,76.17
29.450667,76.15
29.456,76.49
29.461333,76.41
29.466667,76.31
29.472,76.22
29.477333,76.38
29.482667,77.05
29.488,77.06
29.493333,76.94
29.498667,76.8
29.504,77.1
29.509333,77.48
29.514667,77.47
29.52,77.35
29.525333,77.22
29.530667,77.49
29.536,77.72
29.541333,77.62
29.546667,77.51
29.552,77.37
29.557333,77.47
29.562667,77.66
29.568,77.52
29.573333,77.38
29.578667,77.24
29.584,77.27
29.589333,77.36
29.594667,77.23
29.6,77.17
29.605333,77.15
29.610667,77.37
29.616,77.51
29.621333,77.47
29.626667,77.43
29.632,77.38
29.637333,77.55
29.642667,77.73
29.648,77.63
29.653333,77.53
29.658667,77.46
29.664,77.67
29.669333,77.89
29.674667,77.75
29.68,77.59
29.685333,77.48
29.690667,77.56
29.696,77.75
29.701333,77.71
29.706667,77.62
29.712,77.49
29.717333,77.55
29.722667,77.61
29.728,77.56
29.733333,77.47
29.738667,77.38
29.744,77.49
29.749333,77.54
29.754667,77.47
29.76,77.38
29.765333,77.29
29.770667,77.35
29.776,77.34
29.781333,77.24
29.786667,77.12
29.792,77.01
29.797333,77
29.802667,76.97
29.808,76.83
29.813333,76.71
29.818667,76.58
29.824,76.49
29.829333,76.45
29.834667,76.35
29.84,76.24
29.845333,76.12
29.850667,76.12
29.856,76.18
29.861333,76.08
29.866667,76
29.872,75.92
29.877333,75.92
29.882667,76.03
29.888,76
29.893333,75.94
29.898667,75.86
29.904,75.81
29.909333,75.86
29.914667,75.97
29.92,75.92
29.925333,75.82
29.930667,75.7
29.936,75.75
29.941333,75.89
29.946667,75.85
29.952,75.82
29.957333,75.73
29.962667,75.69
29.968,75.87
29.973333,75.78
29.978667,75.68
29.984,75.59
29.989333,75.55
29.994667,75.85
30,75.8
30.005333,75.65
30.010667,75.52
30.016,75.54
30.021333,75.87
30.026667,75.88
30.032,75.77
30.037333,75.68
30.042667,75.61
30.048,75.74
30.053333,75.84
30.058667,75.73
30.064,75.59
30.069333,75.44
30.074667,75.43
30.08,75.46
30.085333,75.37
30.090667,75.32
30.096,75.18
30.101333,75.08
30.106667,75.22
30.112,75.15
30.117333,75.05
30.122667,74.93
30.128,74.92
30.133333,75.05
30.138667,74.96
30.144,74.87
30.149333,74.73
30.154667,74.62
30.16,74.79
30.165333,74.89
30.170667,74.78
30.176,74.66
30.181333,74.57
30.186667,74.67
30.192,74.85
30.197333,74.71
30.202667,74.63
30.208,74.56
30.213333,74.44
30.218667,74.53
30.224,74.41
30.229333,74.31
30.234667,74.2
30.24,74.1
30.245333,74.07
30.250667,74
30.256,73.91
30.261333,73.85
30.266667,73.72
30.272,73.73
30.277333,73.77
30.282667,73.64
30.288,73.52
30.293333,73.48
30.298667,73.47
30.304,73.69
30.309333,73.58
30.314667,73.48
30.32,73.39
30.325333,73.31
30.330667,73.27
30.336,73.28
30.341333,73.24
30.346667,73.17
30.352,73.08
30.357333,73.15
30.362667,73.21
30.368,73.22
30.373333,73.14
30.378667,73.08
30.384,73.05
30.389333,73.11
30.394667,73.04
30.4,73.02
30.405333,72.91
30.410667,72.97
30.416,73.05
30.421333,72.99
30.426667,72.87
30.432,72.79
30.437333,73.05
30.442667,73.27
30.448,73.2
30.453333,73.18
30.458667,73.08
30.464,73.17
30.469333,73.39
30.474667,73.29
30.48,73.19
30.485333,73.07
30.490667,73.21
30.496,73.45
30.501333,73.39
30.506667,73.27
30.512,73.14
30.517333,73.3
30.522667,73.48
30.528,73.48
30.533333,73.38
30.538667,73.25
30.544,73.8
30.549333,73.84
30.554667,73.82
30.56,73.79
30.565333,73.78
30.570667,74.53
30.576,74.65
30.581333,74.61
30.586667,74.52
30.592,74.71
30.597333,75.08
30.602667,75.05
30.608,74.96
30.613333,74.93
30.618667,75.42
30.624,75.62
30.629333,75.59
30.634667,75.51
30.64,75.59
30.645333,75.95
30.650667,75.89
30.656,75.81
30.661333,75.8
30.666667,76.09
30.672,76.12
30.677333,76.08
30.682667,76
30.688,76.05
30.693333,76.18
30.698667,76.22
30.704,76.12
30.709333,76.08
30.714667,76.2
30.72,76.17
30.725333,76.14
30.730667,76.03
30.736,76.3
30.741333,76.26
30.746667,76.27
30.752,76.25
30.757333,76.27
30.762667,76.25
30.768,76.24
30.773333,76.2
30.778667,76.28
30.784,76.41
30.789333,76.29
30.794667,76.19
30.8,76.11
30.805333,76.16
30.810667,76.11
30.816,76.07
30.821333,76.07
30.826667,76.22
30.832,76.1
30.837333,76.1
30.842667,76.13
30.848,76.41
30.853333,76.55
30.858667,76.5
30.864,76.53
30.869333,76.74
30.874667,76.72
30.88,76.62
30.885333,76.54
30.890667,76.84
30.896,76.98
30.901333,76.92
30.906667,76.9
30.912,76.91
30.917333,76.92
30.922667,76.85
30.928,76.85
30.933333,76.97
30.938667,77.13
30.944,77.04
30.949333,76.93
30.954667,76.96
30.96,76.93
30.965333,76.86
30.970667,76.79
30.976,76.79
30.981333,76.8
30.986667,76.69
30.992,76.62
30.997333,76.61
31.002667,76.59
31.008,76.49
31.013333,76.4
31.018667,76.37
31.024,76.39
31.029333,76.29
31.034667,76.26
31.04,76.25
31.045333,76.3
31.050667,76.23
31.056,76.11
31.061333,76.21
31.066667,76.15
31.072,76.13
31.077333,76.01
31.082667,76.04
31.088,76.06
31.093333,76.03
31.098667,75.95
31.104,76.03
31.109333,75.97
31.114667,75.91
31.12,75.82
31.125333,76.14
31.130667,76.15
31.136,76.06
31.141333,75.97
31.146667,76.22
31.152,76.33
31.157333,76.24
31.162667,76.09
31.168,76.29
31.173333,76.36
31.178667,76.23
31.184,76.16
31.189333,76.39
31.194667,76.39
31.2,76.28
31.205333,76.18
31.210667,76.32
31.216,76.27
31.221333,76.14
31.226667,76.21
31.232,76.37
31.237333,76.29
31.242667,76.14
31.248,76.18
31.253333,76.21
31.258667,76.1
31.264,75.97
31.269333,76.02
31.274667,76.08
31.28,75.95
31.285333,75.88
31.290667,76
31.296,75.95
31.301333,75.81
31.306667,75.7
31.312,75.9
31.317333,75.79
31.322667,75.68
31.328,75.63
31.333333,75.78
31.338667,75.67
31.344,75.6
31.349333,75.54
31.354667,75.64
31.36,75.58
31.365333,75.5
31.370667,75.5
31.376,75.56
31.381333,75.48
31.386667,75.4
31.392,75.57
31.397333,75.72
31.402667,75.62
31.408,75.53
31.413333,75.68
31.418667,75.63
31.424,75.63
31.429333,75.59
31.434667,75.64
31.44,75.5
31.445333,75.41
31.450667,75.39
31.456,75.42
31.461333,75.37
31.466667,75.3
31.472,75.35
31.477333,75.45
31.482667,75.33
31.488,75.22
31.493333,75.36
31.498667,75.35
31.504,75.24
31.509333,75.15
31.514667,75.4
31.52,75.46
31.525333,75.34
31.530667,75.43
31.536,75.5
31.541333,75.47
31.546667,75.39
31.552,75.71
31.557333,75.75
31.562667,75.64
31.568,75.57
31.573333,76.03
31.578667,75.99
31.584,75.92
31.589333,76.25
31.594667,76.56
31.6,76.51
31.605333,76.44
31.610667,76.53
31.616,76.62
31.621333,76.55
31.626667,76.46
31.632,76.77
31.637333,76.75
31.642667,76.64
31.648,76.77
31.653333,76.92
31.658667,76.89
31.664,76.82
31.669333,77.15
31.674667,77.09
31.68,77.06
31.685333,76.99
31.690667,77.16
31.696,77.14
31.701333,77.15
31.706667,77.24
31.712,77.23
31.717333,77.17
31.722667,77.13
31.728,77.4
31.733333,77.56
31.738667,77.49
31.744,77.4
31.749333,77.56
31.754667,77.48
31.76,77.37
31.765333,77.5
31.770667,77.55
31.776,77.42
31.781333,77.3
